Time (s),Pitch (deg),Velocity (m/s)
0.0000,-0.5065,-0.0624
0.0042,-0.8110,-0.0508
0.0083,-1.3358,-0.0385
0.0125,-1.8510,-0.0355
0.0167,-2.3622,-0.0352
0.0208,-2.8689,-0.0354
0.0250,-3.3709,-0.0363
0.0292,-3.9962,-0.0233
0.0333,-4.6282,-0.0252
0.0375,-5.2416,-0.0261
0.0417,-5.8300,-0.0269
0.0458,-6.3864,-0.0274
0.0500,-6.9185,-0.0287
0.0542,-7.4027,-0.0178
0.0583,-7.8474,-0.0178
0.0625,-8.2447,-0.0172
0.0667,-8.5853,-0.0154
0.0708,-8.8596,-0.0123
0.0750,-9.0577,-0.0078
0.0792,-9.1716,-0.0020
0.0833,-9.2009,0.0039
0.0875,-9.1601,0.0091
0.0917,-9.0853,0.0112
0.0958,-9.0024,0.0110
0.1000,-8.9248,0.0097
0.1042,-8.8591,0.0078
0.1083,-8.8079,0.0057
0.1125,-8.7706,0.0037
0.1167,-8.7443,0.0019
0.1208,-8.7256,0.0004
0.1250,-8.7109,-0.0007
0.1292,-8.6975,-0.0017
0.1333,-8.6838,-0.0025
0.1375,-8.6689,-0.0033
0.1417,-8.6526,-0.0041
0.1458,-8.6351,-0.0049
0.1500,-8.6167,-0.0057
0.1542,-8.5978,-0.0065
0.1583,-8.5787,-0.0074
0.1625,-8.5594,-0.0083
0.1667,-8.5401,-0.0092
0.1708,-8.5209,-0.0102
0.1750,-8.5016,-0.0111
0.1792,-8.4825,-0.0121
0.1833,-8.4633,-0.0130
0.1875,-8.4441,-0.0140
0.1917,-8.4249,-0.0150
0.1958,-8.4057,-0.0160
0.2000,-8.3864,-0.0170
0.2042,-8.3672,-0.0180
0.2083,-8.3479,-0.0190
0.2125,-8.3285,-0.0201
0.2167,-8.3091,-0.0212
0.2208,-8.2897,-0.0222
0.2250,-8.2703,-0.0233
0.2292,-8.2507,-0.0245
0.2333,-8.2312,-0.0256
0.2375,-8.2116,-0.0268
0.2417,-8.1919,-0.0279
0.2458,-8.1722,-0.0291
0.2500,-8.1524,-0.0303
0.2542,-8.1326,-0.0316
0.2583,-8.1127,-0.0328
0.2625,-8.0928,-0.0341
0.2667,-8.0728,-0.0354
0.2708,-8.0527,-0.0367
0.2750,-8.0326,-0.0381
0.2792,-8.0124,-0.0395
0.2833,-7.9921,-0.0409
0.2875,-7.9718,-0.0423
0.2917,-7.9514,-0.0438
0.2958,-7.9308,-0.0453
0.3000,-7.9102,-0.0468
0.3042,-7.8895,-0.0484
0.3083,-7.8687,-0.0500
0.3125,-7.8478,-0.0516
0.3167,-7.8268,-0.0532
0.3208,-7.8056,-0.0549
0.3250,-7.7843,-0.0567
0.3292,-7.7614,-0.0554
0.3333,-7.7444,-0.0540
0.3375,-7.7337,-0.0542
0.3417,-7.7240,-0.0540
0.3458,-7.7162,-0.0539
0.3500,-7.7098,-0.0538
0.3542,-7.7046,-0.0537
0.3583,-7.7004,-0.0536
0.3625,-7.6971,-0.0535
0.3667,-7.6945,-0.0534
0.3708,-7.6924,-0.0534
0.3750,-7.6908,-0.0533
0.3792,-7.6895,-0.0533
0.3833,-7.6885,-0.0533
0.3875,-7.6875,-0.0534
0.3917,-7.6867,-0.0534
0.3958,-7.6858,-0.0535
0.4000,-7.6849,-0.0536
0.4042,-7.6839,-0.0538
0.4083,-7.6827,-0.0539
0.4125,-7.6814,-0.0541
0.4167,-7.6798,-0.0544
0.4208,-7.6779,-0.0546
0.4250,-7.6758,-0.0549
0.4292,-7.6734,-0.0552
0.4333,-7.6706,-0.0556
0.4375,-7.6675,-0.0560
0.4417,-7.6641,-0.0564
0.4458,-7.6603,-0.0568
0.4500,-7.6562,-0.0573
0.4542,-7.6517,-0.0578
0.4583,-7.6468,-0.0584
0.4625,-7.6416,-0.0589
0.4667,-7.6359,-0.0596
0.4708,-7.6299,-0.0602
0.4750,-7.6234,-0.0609
0.4792,-7.6166,-0.0616
0.4833,-7.6094,-0.0624
0.4875,-7.6018,-0.0632
0.4917,-7.5938,-0.0640
0.4958,-7.5854,-0.0649
0.5000,-7.5765,-0.0659
0.5042,-7.5673,-0.0668
0.5083,-7.5577,-0.0678
0.5125,-7.5477,-0.0689
0.5167,-7.5373,-0.0700
0.5208,-7.5265,-0.0711
0.5250,-7.5153,-0.0723
0.5292,-7.5036,-0.0735
0.5333,-7.4916,-0.0748
0.5375,-7.4792,-0.0761
0.5417,-7.4663,-0.0774
0.5458,-7.4531,-0.0788
0.5500,-7.4394,-0.0803
0.5542,-7.4253,-0.0818
0.5583,-7.4108,-0.0834
0.5625,-7.3959,-0.0850
0.5667,-7.3787,-0.0813
0.5708,-7.3722,-0.0818
0.5750,-7.3644,-0.0814
0.5792,-7.3585,-0.0812
0.5833,-7.3535,-0.0810
0.5875,-7.3494,-0.0808
0.5917,-7.3459,-0.0807
0.5958,-7.3431,-0.0806
0.6000,-7.3407,-0.0805
0.6042,-7.3387,-0.0805
0.6083,-7.3369,-0.0805
0.6125,-7.3354,-0.0806
0.6167,-7.3339,-0.0807
0.6208,-7.3325,-0.0808
0.6250,-7.3310,-0.0810
0.6292,-7.3295,-0.0812
0.6333,-7.3278,-0.0814
0.6375,-7.3260,-0.0817
0.6417,-7.3239,-0.0821
0.6458,-7.3216,-0.0824
0.6500,-7.3189,-0.0829
0.6542,-7.3160,-0.0833
0.6583,-7.3127,-0.0839
0.6625,-7.3091,-0.0844
0.6667,-7.3051,-0.0851
0.6708,-7.3006,-0.0858
0.6750,-7.2958,-0.0865
0.6792,-7.2905,-0.0872
0.6833,-7.2847,-0.0881
0.6875,-7.2785,-0.0889
0.6917,-7.2718,-0.0899
0.6958,-7.2646,-0.0909
0.7000,-7.2570,-0.0919
0.7042,-7.2489,-0.0930
0.7083,-7.2403,-0.0941
0.7125,-7.2312,-0.0953
0.7167,-7.2215,-0.0966
0.7208,-7.2114,-0.0979
0.7250,-7.2007,-0.0993
0.7292,-7.1895,-0.1007
0.7333,-7.1763,-0.0988
0.7375,-7.1685,-0.0967
0.7417,-7.1655,-0.0966
0.7458,-7.1624,-0.0962
0.7500,-7.1603,-0.0959
0.7542,-7.1588,-0.0956
0.7583,-7.1579,-0.0953
0.7625,-7.1573,-0.0951
0.7667,-7.1571,-0.0949
0.7708,-7.1570,-0.0948
0.7750,-7.1571,-0.0948
0.7792,-7.1572,-0.0947
0.7833,-7.1574,-0.0947
0.7875,-7.1574,-0.0948
0.7917,-7.1574,-0.0949
0.7958,-7.1572,-0.0951
0.8000,-7.1568,-0.0953
0.8042,-7.1561,-0.0956
0.8083,-7.1551,-0.0959
0.8125,-7.1538,-0.0963
0.8167,-7.1521,-0.0967
0.8208,-7.1501,-0.0972
0.8250,-7.1476,-0.0978
0.8292,-7.1447,-0.0984
0.8333,-7.1413,-0.0990
0.8375,-7.1374,-0.0997
0.8417,-7.1331,-0.1005
0.8458,-7.1283,-0.1013
0.8500,-7.1229,-0.1022
0.8542,-7.1171,-0.1032
0.8583,-7.1107,-0.1042
0.8625,-7.1037,-0.1052
0.8667,-7.0963,-0.1064
0.8708,-7.0882,-0.1076
0.8750,-7.0796,-0.1088
0.8792,-7.0705,-0.1102
0.8833,-7.0607,-0.1115
0.8875,-7.0504,-0.1130
0.8917,-7.0376,-0.1085
0.8958,-7.0356,-0.1090
0.9000,-7.0317,-0.1084
0.9042,-7.0294,-0.1081
0.9083,-7.0275,-0.1078
0.9125,-7.0262,-0.1076
0.9167,-7.0252,-0.1074
0.9208,-7.0246,-0.1073
0.9250,-7.0241,-0.1072
0.9292,-7.0238,-0.1072
0.9333,-7.0235,-0.1072
0.9375,-7.0232,-0.1073
0.9417,-7.0227,-0.1074
0.9458,-7.0222,-0.1076
0.9500,-7.0214,-0.1078
0.9542,-7.0204,-0.1081
0.9583,-7.0191,-0.1085
0.9625,-7.0175,-0.1089
0.9667,-7.0156,-0.1094
0.9708,-7.0132,-0.1099
0.9750,-7.0104,-0.1105
0.9792,-7.0072,-0.1112
0.9833,-7.0035,-0.1120
0.9875,-6.9993,-0.1128
0.9917,-6.9946,-0.1136
0.9958,-6.9893,-0.1146
1.0000,-6.9836,-0.1156
1.0042,-6.9772,-0.1166
1.0083,-6.9703,-0.1177
1.0125,-6.9629,-0.1189
1.0167,-6.9549,-0.1202
1.0208,-6.9463,-0.1216
1.0250,-6.9351,-0.1170
1.0292,-6.9345,-0.1173
1.0333,-6.9321,-0.1166
1.0375,-6.9312,-0.1162
1.0417,-6.9307,-0.1158
1.0458,-6.9307,-0.1155
1.0500,-6.9310,-0.1152
1.0542,-6.9316,-0.1150
1.0583,-6.9323,-0.1148
1.0625,-6.9331,-0.1147
1.0667,-6.9339,-0.1147
1.0708,-6.9346,-0.1147
1.0750,-6.9352,-0.1147
1.0792,-6.9356,-0.1149
1.0833,-6.9358,-0.1151
1.0875,-6.9357,-0.1153
1.0917,-6.9353,-0.1156
1.0958,-6.9345,-0.1160
1.1000,-6.9334,-0.1164
1.1042,-6.9318,-0.1169
1.1083,-6.9298,-0.1175
1.1125,-6.9273,-0.1182
1.1167,-6.9243,-0.1189
1.1208,-6.9208,-0.1196
1.1250,-6.9167,-0.1205
1.1292,-6.9122,-0.1214
1.1333,-6.9070,-0.1224
1.1375,-6.9013,-0.1234
1.1417,-6.8949,-0.1246
1.1458,-6.8880,-0.1258
1.1500,-6.8805,-0.1270
1.1542,-6.8723,-0.1284
1.1583,-6.8615,-0.1236
1.1625,-6.8615,-0.1239
1.1667,-6.8597,-0.1232
1.1708,-6.8592,-0.1229
1.1750,-6.8589,-0.1225
1.1792,-6.8591,-0.1222
1.1833,-6.8596,-0.1220
1.1875,-6.8602,-0.1218
1.1917,-6.8609,-0.1217
1.1958,-6.8616,-0.1216
1.2000,-6.8623,-0.1216
1.2042,-6.8628,-0.1217
1.2083,-6.8632,-0.1218
1.2125,-6.8633,-0.1220
1.2167,-6.8632,-0.1223
1.2208,-6.8627,-0.1226
1.2250,-6.8619,-0.1230
1.2292,-6.8606,-0.1235
1.2333,-6.8590,-0.1240
1.2375,-6.8569,-0.1246
1.2417,-6.8542,-0.1253
1.2458,-6.8511,-0.1261
1.2500,-6.8474,-0.1269
1.2542,-6.8431,-0.1278
1.2583,-6.8384,-0.1287
1.2625,-6.8330,-0.1298
1.2667,-6.8270,-0.1309
1.2708,-6.8205,-0.1321
1.2750,-6.8133,-0.1333
1.2792,-6.8055,-0.1347
1.2833,-6.7950,-0.1296
1.2875,-6.7955,-0.1300
1.2917,-6.7942,-0.1293
1.2958,-6.7940,-0.1290
1.3000,-6.7941,-0.1286
1.3042,-6.7945,-0.1284
1.3083,-6.7951,-0.1281
1.3125,-6.7959,-0.1280
1.3167,-6.7967,-0.1279
1.3208,-6.7975,-0.1279
1.3250,-6.7981,-0.1279
1.3292,-6.7986,-0.1280
1.3333,-6.7989,-0.1282
1.3375,-6.7990,-0.1284
1.3417,-6.7987,-0.1287
1.3458,-6.7980,-0.1291
1.3500,-6.7970,-0.1295
1.3542,-6.7955,-0.1301
1.3583,-6.7936,-0.1306
1.3625,-6.7912,-0.1313
1.3667,-6.7883,-0.1321
1.3708,-6.7848,-0.1329
1.3750,-6.7808,-0.1338
1.3792,-6.7761,-0.1348
1.3833,-6.7709,-0.1358
1.3875,-6.7651,-0.1369
1.3917,-6.7587,-0.1381
1.3958,-6.7516,-0.1394
1.4000,-6.7419,-0.1343
1.4042,-6.7430,-0.1346
1.4083,-6.7424,-0.1339
1.4125,-6.7429,-0.1335
1.4167,-6.7437,-0.1331
1.4208,-6.7447,-0.1327
1.4250,-6.7459,-0.1325
1.4292,-6.7473,-0.1323
1.4333,-6.7487,-0.1321
1.4375,-6.7500,-0.1321
1.4417,-6.7512,-0.1321
1.4458,-6.7522,-0.1321
1.4500,-6.7529,-0.1323
1.4542,-6.7534,-0.1325
1.4583,-6.7536,-0.1327
1.4625,-6.7534,-0.1331
1.4667,-6.7528,-0.1335
1.4708,-6.7517,-0.1341
1.4750,-6.7501,-0.1346
1.4792,-6.7480,-0.1353
1.4833,-6.7454,-0.1360
1.4875,-6.7422,-0.1368
1.4917,-6.7385,-0.1377
1.4958,-6.7342,-0.1387
1.5000,-6.7293,-0.1397
1.5042,-6.7238,-0.1408
1.5083,-6.7176,-0.1420
1.5125,-6.7109,-0.1433
1.5167,-6.7013,-0.1380
1.5208,-6.7027,-0.1384
1.5250,-6.7025,-0.1377
1.5292,-6.7032,-0.1373
1.5333,-6.7041,-0.1369
1.5375,-6.7053,-0.1366
1.5417,-6.7066,-0.1363
1.5458,-6.7080,-0.1362
1.5500,-6.7093,-0.1360
1.5542,-6.7106,-0.1360
1.5583,-6.7118,-0.1360
1.5625,-6.7127,-0.1361
1.5667,-6.7134,-0.1363
1.5708,-6.7137,-0.1365
1.5750,-6.7137,-0.1369
1.5792,-6.7133,-0.1373
1.5833,-6.7125,-0.1377
1.5875,-6.7112,-0.1383
1.5917,-6.7094,-0.1389
1.5958,-6.7071,-0.1396
1.6000,-6.7042,-0.1404
1.6042,-6.7007,-0.1413
1.6083,-6.6966,-0.1422
1.6125,-6.6920,-0.1432
1.6167,-6.6867,-0.1443
1.6208,-6.6808,-0.1455
1.6250,-6.6743,-0.1468
1.6292,-6.6650,-0.1415
1.6333,-6.6666,-0.1418
1.6375,-6.6667,-0.1411
1.6417,-6.6676,-0.1407
1.6458,-6.6687,-0.1403
1.6500,-6.6701,-0.1400
1.6542,-6.6715,-0.1397
1.6583,-6.6731,-0.1395
1.6625,-6.6746,-0.1394
1.6667,-6.6759,-0.1394
1.6708,-6.6772,-0.1394
1.6750,-6.6781,-0.1395
1.6792,-6.6789,-0.1397
1.6833,-6.6792,-0.1400
1.6875,-6.6793,-0.1403
1.6917,-6.6789,-0.1407
1.6958,-6.6780,-0.1412
1.7000,-6.6767,-0.1418
1.7042,-6.6749,-0.1425
1.7083,-6.6725,-0.1432
1.7125,-6.6695,-0.1440
1.7167,-6.6659,-0.1449
1.7208,-6.6618,-0.1459
1.7250,-6.6570,-0.1469
1.7292,-6.6516,-0.1481
1.7333,-6.6456,-0.1493
1.7375,-6.6368,-0.1439
1.7417,-6.6389,-0.1441
1.7458,-6.6394,-0.1434
1.7500,-6.6408,-0.1430
1.7542,-6.6424,-0.1425
1.7583,-6.6442,-0.1422
1.7625,-6.6462,-0.1419
1.7667,-6.6481,-0.1417
1.7708,-6.6500,-0.1415
1.7750,-6.6519,-0.1414
1.7792,-6.6535,-0.1414
1.7833,-6.6549,-0.1415
1.7875,-6.6560,-0.1417
1.7917,-6.6568,-0.1419
1.7958,-6.6572,-0.1422
1.8000,-6.6572,-0.1426
1.8042,-6.6566,-0.1431
1.8083,-6.6556,-0.1436
1.8125,-6.6541,-0.1442
1.8167,-6.6520,-0.1449
1.8208,-6.6494,-0.1457
1.8250,-6.6462,-0.1466
1.8292,-6.6424,-0.1475
1.8333,-6.6379,-0.1486
1.8375,-6.6329,-0.1497
1.8417,-6.6272,-0.1509
1.8458,-6.6188,-0.1455
1.8500,-6.6210,-0.1458
1.8542,-6.6217,-0.1450
1.8583,-6.6233,-0.1445
1.8625,-6.6251,-0.1441
1.8667,-6.6272,-0.1437
1.8708,-6.6292,-0.1434
1.8750,-6.6313,-0.1432
1.8792,-6.6334,-0.1430
1.8833,-6.6353,-0.1429
1.8875,-6.6371,-0.1429
1.8917,-6.6387,-0.1430
1.8958,-6.6400,-0.1431
1.9000,-6.6409,-0.1433
1.9042,-6.6415,-0.1436
1.9083,-6.6416,-0.1440
1.9125,-6.6413,-0.1444
1.9167,-6.6405,-0.1450
1.9208,-6.6392,-0.1456
1.9250,-6.6374,-0.1463
1.9292,-6.6349,-0.1470
1.9333,-6.6319,-0.1479
1.9375,-6.6283,-0.1488
1.9417,-6.6240,-0.1499
1.9458,-6.6191,-0.1510
1.9500,-6.6135,-0.1522
1.9542,-6.6052,-0.1467
1.9583,-6.6077,-0.1470
1.9625,-6.6086,-0.1462
1.9667,-6.6103,-0.1458
1.9708,-6.6123,-0.1453
1.9750,-6.6144,-0.1449
1.9792,-6.6166,-0.1446
1.9833,-6.6188,-0.1444
1.9875,-6.6210,-0.1443
1.9917,-6.6230,-0.1442
1.9958,-6.6249,-0.1442
2.0000,-6.6264,-0.1442
2.0042,-6.6277,-0.1444
2.0083,-6.6286,-0.1447
2.0125,-6.6291,-0.1450
2.0167,-6.6291,-0.1453
2.0208,-6.6287,-0.1458
2.0250,-6.6278,-0.1463
2.0292,-6.6264,-0.1470
2.0333,-6.6244,-0.1477
2.0375,-6.6219,-0.1485
2.0417,-6.6187,-0.1493
2.0458,-6.6150,-0.1503
2.0500,-6.6106,-0.1513
2.0542,-6.6056,-0.1525
2.0583,-6.5999,-0.1537
2.0625,-6.5914,-0.1482
2.0667,-6.5938,-0.1485
2.0708,-6.5947,-0.1477
2.0750,-6.5964,-0.1473
2.0792,-6.5982,-0.1469
2.0833,-6.6002,-0.1465
2.0875,-6.6023,-0.1462
2.0917,-6.6043,-0.1460
2.0958,-6.6063,-0.1459
2.1000,-6.6082,-0.1459
2.1042,-6.6098,-0.1459
2.1083,-6.6112,-0.1460
2.1125,-6.6122,-0.1462
2.1167,-6.6129,-0.1464
2.1208,-6.6132,-0.1468
2.1250,-6.6131,-0.1472
2.1292,-6.6124,-0.1477
2.1333,-6.6112,-0.1483
2.1375,-6.6095,-0.1490
2.1417,-6.6072,-0.1497
2.1458,-6.6043,-0.1506
2.1500,-6.6009,-0.1515
2.1542,-6.5968,-0.1525
2.1583,-6.5921,-0.1536
2.1625,-6.5867,-0.1547
2.1667,-6.5786,-0.1493
2.1708,-6.5812,-0.1495
2.1750,-6.5824,-0.1487
2.1792,-6.5843,-0.1483
2.1833,-6.5864,-0.1478
2.1875,-6.5886,-0.1474
2.1917,-6.5909,-0.1471
2.1958,-6.5933,-0.1469
2.2000,-6.5956,-0.1467
2.2042,-6.5978,-0.1466
2.2083,-6.5997,-0.1466
2.2125,-6.6015,-0.1466
2.2167,-6.6029,-0.1468
2.2208,-6.6040,-0.1470
2.2250,-6.6047,-0.1473
2.2292,-6.6049,-0.1476
2.2333,-6.6047,-0.1481
2.2375,-6.6040,-0.1486
2.2417,-6.6027,-0.1493
2.2458,-6.6009,-0.1500
2.2500,-6.5985,-0.1508
2.2542,-6.5955,-0.1516
2.2583,-6.5918,-0.1526
2.2625,-6.5876,-0.1537
2.2667,-6.5826,-0.1548
2.2708,-6.5770,-0.1560
2.2750,-6.5685,-0.1504
2.2792,-6.5711,-0.1507
2.2833,-6.5722,-0.1500
2.2875,-6.5739,-0.1495
2.2917,-6.5758,-0.1491
2.2958,-6.5779,-0.1488
2.3000,-6.5800,-0.1486
2.3042,-6.5820,-0.1484
2.3083,-6.5840,-0.1483
2.3125,-6.5857,-0.1483
2.3167,-6.5873,-0.1483
2.3208,-6.5885,-0.1484
2.3250,-6.5895,-0.1486
2.3292,-6.5900,-0.1489
2.3333,-6.5902,-0.1493
2.3375,-6.5898,-0.1497
2.3417,-6.5890,-0.1503
2.3458,-6.5877,-0.1509
2.3500,-6.5858,-0.1516
2.3542,-6.5833,-0.1524
2.3583,-6.5802,-0.1533
2.3625,-6.5765,-0.1542
2.3667,-6.5721,-0.1553
2.3708,-6.5672,-0.1564
2.3750,-6.5615,-0.1576
2.3792,-6.5530,-0.1520
2.3833,-6.5556,-0.1523
2.3875,-6.5566,-0.1516
2.3917,-6.5584,-0.1511
2.3958,-6.5603,-0.1507
2.4000,-6.5624,-0.1504
2.4042,-6.5644,-0.1501
2.4083,-6.5665,-0.1500
2.4125,-6.5684,-0.1499
2.4167,-6.5702,-0.1498
2.4208,-6.5718,-0.1499
2.4250,-6.5730,-0.1500
2.4292,-6.5739,-0.1502
2.4333,-6.5745,-0.1505
2.4375,-6.5746,-0.1509
2.4417,-6.5743,-0.1514
2.4458,-6.5734,-0.1519
2.4500,-6.5721,-0.1525
2.4542,-6.5701,-0.1533
2.4583,-6.5676,-0.1541
2.4625,-6.5644,-0.1550
2.4667,-6.5607,-0.1559
2.4708,-6.5563,-0.1570
2.4750,-6.5512,-0.1581
2.4792,-6.5455,-0.1594
2.4833,-6.5369,-0.1536
2.4875,-6.5395,-0.1540
2.4917,-6.5406,-0.1533
2.4958,-6.5423,-0.1529
2.5000,-6.5442,-0.1525
2.5042,-6.5462,-0.1522
2.5083,-6.5481,-0.1519
2.5125,-6.5501,-0.1518
2.5167,-6.5519,-0.1517
2.5208,-6.5535,-0.1517
2.5250,-6.5549,-0.1518
2.5292,-6.5560,-0.1520
2.5333,-6.5567,-0.1522
2.5375,-6.5570,-0.1525
2.5417,-6.5569,-0.1529
2.5458,-6.5563,-0.1534
2.5500,-6.5553,-0.1540
2.5542,-6.5537,-0.1547
2.5583,-6.5515,-0.1554
2.5625,-6.5488,-0.1563
2.5667,-6.5454,-0.1572
2.5708,-6.5413,-0.1582
2.5750,-6.5366,-0.1593
2.5792,-6.5313,-0.1605
2.5833,-6.5231,-0.1548
2.5875,-6.5259,-0.1551
2.5917,-6.5274,-0.1543
2.5958,-6.5294,-0.1539
2.6000,-6.5316,-0.1534
2.6042,-6.5340,-0.1531
2.6083,-6.5363,-0.1528
2.6125,-6.5386,-0.1526
2.6167,-6.5408,-0.1525
2.6208,-6.5428,-0.1524
2.6250,-6.5446,-0.1525
2.6292,-6.5461,-0.1526
2.6333,-6.5472,-0.1528
2.6375,-6.5480,-0.1531
2.6417,-6.5483,-0.1534
2.6458,-6.5481,-0.1539
2.6500,-6.5474,-0.1544
2.6542,-6.5462,-0.1551
2.6583,-6.5444,-0.1558
2.6625,-6.5419,-0.1566
2.6667,-6.5389,-0.1575
2.6708,-6.5353,-0.1584
2.6750,-6.5310,-0.1595
2.6792,-6.5261,-0.1606
2.6833,-6.5185,-0.1551
2.6875,-6.5215,-0.1553
2.6917,-6.5231,-0.1545
2.6958,-6.5253,-0.1540
2.7000,-6.5277,-0.1535
2.7042,-6.5303,-0.1531
2.7083,-6.5330,-0.1528
2.7125,-6.5356,-0.1526
2.7167,-6.5382,-0.1524
2.7208,-6.5406,-0.1523
2.7250,-6.5427,-0.1523
2.7292,-6.5446,-0.1523
2.7333,-6.5462,-0.1525
2.7375,-6.5473,-0.1527
2.7417,-6.5481,-0.1530
2.7458,-6.5483,-0.1534
2.7500,-6.5481,-0.1539
2.7542,-6.5474,-0.1545
2.7583,-6.5461,-0.1552
2.7625,-6.5442,-0.1559
2.7667,-6.5417,-0.1567
2.7708,-6.5386,-0.1577
2.7750,-6.5348,-0.1587
2.7792,-6.5304,-0.1598
2.7833,-6.5253,-0.1610
2.7875,-6.5173,-0.1552
2.7917,-6.5203,-0.1555
2.7958,-6.5219,-0.1548
2.8000,-6.5241,-0.1543
2.8042,-6.5264,-0.1539
2.8083,-6.5289,-0.1535
2.8125,-6.5313,-0.1533
2.8167,-6.5337,-0.1531
2.8208,-6.5359,-0.1530
2.8250,-6.5380,-0.1529
2.8292,-6.5398,-0.1530
2.8333,-6.5413,-0.1531
2.8375,-6.5424,-0.1533
2.8417,-6.5431,-0.1536
2.8458,-6.5434,-0.1540
2.8500,-6.5432,-0.1544
2.8542,-6.5425,-0.1550
2.8583,-6.5413,-0.1556
2.8625,-6.5394,-0.1564
2.8667,-6.5370,-0.1572
2.8708,-6.5339,-0.1581
2.8750,-6.5302,-0.1590
2.8792,-6.5259,-0.1601
2.8833,-6.5209,-0.1613
2.8875,-6.5131,-0.1556
2.8917,-6.5162,-0.1558
2.8958,-6.5179,-0.1551
2.9000,-6.5202,-0.1546
2.9042,-6.5226,-0.1541
2.9083,-6.5253,-0.1537
2.9125,-6.5279,-0.1534
2.9167,-6.5305,-0.1532
2.9208,-6.5330,-0.1530
2.9250,-6.5353,-0.1530
2.9292,-6.5373,-0.1530
2.9333,-6.5390,-0.1531
2.9375,-6.5403,-0.1533
2.9417,-6.5413,-0.1535
2.9458,-6.5418,-0.1538
2.9500,-6.5419,-0.1543
2.9542,-6.5415,-0.1548
2.9583,-6.5406,-0.1554
2.9625,-6.5391,-0.1560
2.9667,-6.5371,-0.1568
2.9708,-6.5344,-0.1577
2.9750,-6.5311,-0.1586
2.9792,-6.5271,-0.1596
2.9833,-6.5225,-0.1608
2.9875,-6.5172,-0.1620
2.9917,-6.5090,-0.1562
2.9958,-6.5120,-0.1565
3.0000,-6.5134,-0.1558
3.0042,-6.5155,-0.1554
3.0083,-6.5177,-0.1550
3.0125,-6.5199,-0.1546
3.0167,-6.5222,-0.1544
3.0208,-6.5244,-0.1542
3.0250,-6.5264,-0.1541
3.0292,-6.5283,-0.1541
3.0333,-6.5299,-0.1542
3.0375,-6.5311,-0.1544
3.0417,-6.5320,-0.1546
3.0458,-6.5325,-0.1549
3.0500,-6.5326,-0.1553
3.0542,-6.5321,-0.1558
3.0583,-6.5312,-0.1564
3.0625,-6.5297,-0.1571
3.0667,-6.5277,-0.1578
3.0708,-6.5249,-0.1587
3.0750,-6.5216,-0.1596
3.0792,-6.5176,-0.1606
3.0833,-6.5130,-0.1618
3.0875,-6.5077,-0.1630
3.0917,-6.4995,-0.1571
3.0958,-6.5025,-0.1574
3.1000,-6.5041,-0.1567
3.1042,-6.5062,-0.1562
3.1083,-6.5085,-0.1558
3.1125,-6.5108,-0.1555
3.1167,-6.5132,-0.1552
3.1208,-6.5155,-0.1551
3.1250,-6.5176,-0.1550
3.1292,-6.5196,-0.1550
3.1333,-6.5212,-0.1550
3.1375,-6.5226,-0.1552
3.1417,-6.5236,-0.1554
3.1458,-6.5242,-0.1557
3.1500,-6.5243,-0.1561
3.1542,-6.5240,-0.1566
3.1583,-6.5231,-0.1571
3.1625,-6.5217,-0.1578
3.1667,-6.5198,-0.1586
3.1708,-6.5172,-0.1594
3.1750,-6.5139,-0.1603
3.1792,-6.5100,-0.1613
3.1833,-6.5055,-0.1624
3.1875,-6.5003,-0.1636
3.1917,-6.4922,-0.1578
3.1958,-6.4952,-0.1581
3.2000,-6.4969,-0.1574
3.2042,-6.4991,-0.1569
3.2083,-6.5014,-0.1565
3.2125,-6.5038,-0.1562
3.2167,-6.5062,-0.1559
3.2208,-6.5085,-0.1557
3.2250,-6.5107,-0.1556
3.2292,-6.5127,-0.1556
3.2333,-6.5144,-0.1557
3.2375,-6.5158,-0.1558
3.2417,-6.5168,-0.1560
3.2458,-6.5175,-0.1564
3.2500,-6.5177,-0.1567
3.2542,-6.5174,-0.1572
3.2583,-6.5165,-0.1578
3.2625,-6.5152,-0.1585
3.2667,-6.5132,-0.1592
3.2708,-6.5105,-0.1601
3.2750,-6.5073,-0.1610
3.2792,-6.5034,-0.1620
3.2833,-6.4989,-0.1631
3.2875,-6.4938,-0.1643
3.2917,-6.4857,-0.1585
3.2958,-6.4888,-0.1588
3.3000,-6.4904,-0.1581
3.3042,-6.4926,-0.1576
3.3083,-6.4949,-0.1572
3.3125,-6.4973,-0.1569
3.3167,-6.4997,-0.1566
3.3208,-6.5020,-0.1564
3.3250,-6.5042,-0.1563
3.3292,-6.5061,-0.1563
3.3333,-6.5078,-0.1564
3.3375,-6.5092,-0.1566
3.3417,-6.5102,-0.1568
3.3458,-6.5107,-0.1571
3.3500,-6.5109,-0.1575
3.3542,-6.5105,-0.1580
3.3583,-6.5096,-0.1586
3.3625,-6.5082,-0.1593
3.3667,-6.5061,-0.1601
3.3708,-6.5034,-0.1609
3.3750,-6.5001,-0.1618
3.3792,-6.4962,-0.1629
3.3833,-6.4916,-0.1640
3.3875,-6.4842,-0.1583
3.3917,-6.4876,-0.1584
3.3958,-6.4897,-0.1577
3.4000,-6.4924,-0.1572
3.4042,-6.4952,-0.1567
3.4083,-6.4980,-0.1562
3.4125,-6.5010,-0.1559
3.4167,-6.5039,-0.1556
3.4208,-6.5067,-0.1554
3.4250,-6.5093,-0.1553
3.4292,-6.5117,-0.1553
3.4333,-6.5138,-0.1554
3.4375,-6.5155,-0.1555
3.4417,-6.5168,-0.1557
3.4458,-6.5178,-0.1560
3.4500,-6.5182,-0.1564
3.4542,-6.5181,-0.1569
3.4583,-6.5175,-0.1575
3.4625,-6.5164,-0.1581
3.4667,-6.5146,-0.1589
3.4708,-6.5122,-0.1597
3.4750,-6.5092,-0.1606
3.4792,-6.5055,-0.1617
3.4833,-6.5011,-0.1628
3.4875,-6.4961,-0.1640
3.4917,-6.4881,-0.1582
3.4958,-6.4912,-0.1584
3.5000,-6.4929,-0.1578
3.5042,-6.4952,-0.1573
3.5083,-6.4975,-0.1569
3.5125,-6.5000,-0.1566
3.5167,-6.5024,-0.1563
3.5208,-6.5047,-0.1562
3.5250,-6.5069,-0.1561
3.5292,-6.5088,-0.1561
3.5333,-6.5105,-0.1561
3.5375,-6.5119,-0.1563
3.5417,-6.5129,-0.1565
3.5458,-6.5134,-0.1568
3.5500,-6.5136,-0.1572
3.5542,-6.5132,-0.1577
3.5583,-6.5123,-0.1583
3.5625,-6.5108,-0.1590
3.5667,-6.5088,-0.1598
3.5708,-6.5060,-0.1606
3.5750,-6.5027,-0.1616
3.5792,-6.4988,-0.1626
3.5833,-6.4942,-0.1637
3.5875,-6.4868,-0.1580
3.5917,-6.4901,-0.1582
3.5958,-6.4921,-0.1575
3.6000,-6.4947,-0.1569
3.6042,-6.4974,-0.1564
3.6083,-6.5003,-0.1560
3.6125,-6.5032,-0.1557
3.6167,-6.5061,-0.1554
3.6208,-6.5089,-0.1552
3.6250,-6.5115,-0.1551
3.6292,-6.5139,-0.1551
3.6333,-6.5159,-0.1551
3.6375,-6.5177,-0.1553
3.6417,-6.5190,-0.1555
3.6458,-6.5199,-0.1558
3.6500,-6.5203,-0.1562
3.6542,-6.5203,-0.1567
3.6583,-6.5196,-0.1573
3.6625,-6.5185,-0.1579
3.6667,-6.5167,-0.1587
3.6708,-6.5143,-0.1595
3.6750,-6.5113,-0.1604
3.6792,-6.5076,-0.1615
3.6833,-6.5032,-0.1626
3.6875,-6.4982,-0.1638
3.6917,-6.4902,-0.1579
3.6958,-6.4933,-0.1582
3.7000,-6.4950,-0.1575
3.7042,-6.4973,-0.1571
3.7083,-6.4997,-0.1567
3.7125,-6.5021,-0.1563
3.7167,-6.5045,-0.1561
3.7208,-6.5069,-0.1559
3.7250,-6.5090,-0.1558
3.7292,-6.5110,-0.1558
3.7333,-6.5127,-0.1559
3.7375,-6.5141,-0.1560
3.7417,-6.5151,-0.1563
3.7458,-6.5156,-0.1566
3.7500,-6.5157,-0.1570
3.7542,-6.5154,-0.1575
3.7583,-6.5145,-0.1581
3.7625,-6.5130,-0.1588
3.7667,-6.5110,-0.1595
3.7708,-6.5083,-0.1604
3.7750,-6.5050,-0.1613
3.7792,-6.5010,-0.1624
3.7833,-6.4964,-0.1635
3.7875,-6.4911,-0.1647
3.7917,-6.4829,-0.1588
3.7958,-6.4859,-0.1591
3.8000,-6.4875,-0.1585
3.8042,-6.4896,-0.1580
3.8083,-6.4918,-0.1576
3.8125,-6.4941,-0.1573
3.8167,-6.4964,-0.1571
3.8208,-6.4986,-0.1569
3.8250,-6.5007,-0.1568
3.8292,-6.5025,-0.1568
3.8333,-6.5041,-0.1569
3.8375,-6.5053,-0.1571
3.8417,-6.5062,-0.1573
3.8458,-6.5066,-0.1577
3.8500,-6.5066,-0.1581
3.8542,-6.5061,-0.1586
3.8583,-6.5051,-0.1592
3.8625,-6.5035,-0.1599
3.8667,-6.5014,-0.1607
3.8708,-6.4986,-0.1616
3.8750,-6.4951,-0.1625
3.8792,-6.4910,-0.1636
3.8833,-6.4863,-0.1647
3.8875,-6.4787,-0.1589
3.8917,-6.4820,-0.1591
3.8958,-6.4840,-0.1584
3.9000,-6.4866,-0.1578
3.9042,-6.4893,-0.1574
3.9083,-6.4921,-0.1570
3.9125,-6.4950,-0.1567
3.9167,-6.4978,-0.1564
3.9208,-6.5005,-0.1562
3.9250,-6.5029,-0.1562
3.9292,-6.5051,-0.1562
3.9333,-6.5069,-0.1563
3.9375,-6.5084,-0.1565
3.9417,-6.5094,-0.1567
3.9458,-6.5101,-0.1571
3.9500,-6.5103,-0.1575
3.9542,-6.5100,-0.1580
3.9583,-6.5091,-0.1586
3.9625,-6.5077,-0.1593
3.9667,-6.5057,-0.1600
3.9708,-6.5030,-0.1609
3.9750,-6.4998,-0.1619
3.9792,-6.4958,-0.1629
3.9833,-6.4912,-0.1641
3.9875,-6.4838,-0.1583
3.9917,-6.4872,-0.1585
3.9958,-6.4892,-0.1578
4.0000,-6.4919,-0.1572
4.0042,-6.4947,-0.1568
4.0083,-6.4975,-0.1564
4.0125,-6.5004,-0.1561
4.0167,-6.5032,-0.1558
4.0208,-6.5059,-0.1557
4.0250,-6.5084,-0.1556
4.0292,-6.5105,-0.1556
4.0333,-6.5124,-0.1557
4.0375,-6.5139,-0.1559
4.0417,-6.5150,-0.1561
4.0458,-6.5156,-0.1565
4.0500,-6.5158,-0.1569
4.0542,-6.5155,-0.1574
4.0583,-6.5147,-0.1580
4.0625,-6.5132,-0.1587
4.0667,-6.5112,-0.1595
4.0708,-6.5086,-0.1603
4.0750,-6.5053,-0.1613
4.0792,-6.5014,-0.1623
4.0833,-6.4968,-0.1635
4.0875,-6.4894,-0.1578
4.0917,-6.4927,-0.1580
4.0958,-6.4947,-0.1572
4.1000,-6.4973,-0.1567
4.1042,-6.5001,-0.1562
4.1083,-6.5029,-0.1558
4.1125,-6.5058,-0.1556
4.1167,-6.5085,-0.1553
4.1208,-6.5111,-0.1551
4.1250,-6.5136,-0.1550
4.1292,-6.5158,-0.1550
4.1333,-6.5177,-0.1551
4.1375,-6.5192,-0.1553
4.1417,-6.5204,-0.1555
4.1458,-6.5211,-0.1559
4.1500,-6.5214,-0.1563
4.1542,-6.5211,-0.1568
4.1583,-6.5203,-0.1574
4.1625,-6.5190,-0.1580
4.1667,-6.5170,-0.1588
4.1708,-6.5144,-0.1597
4.1750,-6.5112,-0.1606
4.1792,-6.5073,-0.1617
4.1833,-6.5028,-0.1628
4.1875,-6.4954,-0.1571
4.1917,-6.4989,-0.1573
4.1958,-6.5009,-0.1565
4.2000,-6.5036,-0.1560
4.2042,-6.5064,-0.1555
4.2083,-6.5094,-0.1551
4.2125,-6.5123,-0.1547
4.2167,-6.5152,-0.1545
4.2208,-6.5179,-0.1544
4.2250,-6.5204,-0.1543
4.2292,-6.5227,-0.1542
4.2333,-6.5247,-0.1543
4.2375,-6.5263,-0.1544
4.2417,-6.5276,-0.1547
4.2458,-6.5284,-0.1550
4.2500,-6.5288,-0.1554
4.2542,-6.5286,-0.1559
4.2583,-6.5279,-0.1565
4.2625,-6.5267,-0.1571
4.2667,-6.5248,-0.1579
4.2708,-6.5224,-0.1587
4.2750,-6.5193,-0.1596
4.2792,-6.5155,-0.1607
4.2833,-6.5111,-0.1618
4.2875,-6.5060,-0.1630
4.2917,-6.4980,-0.1572
4.2958,-6.5011,-0.1575
4.3000,-6.5027,-0.1568
4.3042,-6.5049,-0.1563
4.3083,-6.5072,-0.1559
4.3125,-6.5096,-0.1556
4.3167,-6.5120,-0.1553
4.3208,-6.5143,-0.1552
4.3250,-6.5164,-0.1551
4.3292,-6.5184,-0.1551
4.3333,-6.5201,-0.1551
4.3375,-6.5214,-0.1553
4.3417,-6.5224,-0.1555
4.3458,-6.5230,-0.1558
4.3500,-6.5232,-0.1562
4.3542,-6.5228,-0.1567
4.3583,-6.5220,-0.1573
4.3625,-6.5205,-0.1580
4.3667,-6.5185,-0.1587
4.3708,-6.5158,-0.1596
4.3750,-6.5125,-0.1605
4.3792,-6.5086,-0.1615
4.3833,-6.5041,-0.1626
4.3875,-6.4989,-0.1638
4.3917,-6.4907,-0.1580
4.3958,-6.4938,-0.1583
4.4000,-6.4954,-0.1576
4.4042,-6.4976,-0.1571
4.4083,-6.4998,-0.1567
4.4125,-6.5022,-0.1564
4.4167,-6.5046,-0.1561
4.4208,-6.5068,-0.1560
4.4250,-6.5090,-0.1559
4.4292,-6.5109,-0.1559
4.4333,-6.5125,-0.1559
4.4375,-6.5139,-0.1561
4.4417,-6.5148,-0.1563
4.4458,-6.5154,-0.1567
4.4500,-6.5155,-0.1571
4.4542,-6.5151,-0.1576
4.4583,-6.5142,-0.1581
4.4625,-6.5127,-0.1588
4.4667,-6.5107,-0.1596
4.4708,-6.5080,-0.1604
4.4750,-6.5047,-0.1614
4.4792,-6.5007,-0.1624
4.4833,-6.4961,-0.1635
4.4875,-6.4908,-0.1647
4.4917,-6.4825,-0.1589
4.4958,-6.4856,-0.1592
4.5000,-6.4871,-0.1585
4.5042,-6.4893,-0.1580
4.5083,-6.4915,-0.1576
4.5125,-6.4938,-0.1573
4.5167,-6.4961,-0.1571
4.5208,-6.4983,-0.1569
4.5250,-6.5003,-0.1569
4.5292,-6.5022,-0.1569
4.5333,-6.5037,-0.1570
4.5375,-6.5049,-0.1571
4.5417,-6.5058,-0.1574
4.5458,-6.5062,-0.1577
4.5500,-6.5062,-0.1581
4.5542,-6.5057,-0.1586
4.5583,-6.5047,-0.1592
4.5625,-6.5031,-0.1599
4.5667,-6.5009,-0.1607
4.5708,-6.4982,-0.1616
4.5750,-6.4947,-0.1626
4.5792,-6.4906,-0.1636
4.5833,-6.4858,-0.1648
4.5875,-6.4783,-0.1590
4.5917,-6.4815,-0.1592
4.5958,-6.4834,-0.1585
4.6000,-6.4860,-0.1579
4.6042,-6.4887,-0.1575
4.6083,-6.4914,-0.1571
4.6125,-6.4942,-0.1568
4.6167,-6.4968,-0.1565
4.6208,-6.4994,-0.1564
4.6250,-6.5018,-0.1563
4.6292,-6.5040,-0.1563
4.6333,-6.5059,-0.1564
4.6375,-6.5074,-0.1565
4.6417,-6.5085,-0.1568
4.6458,-6.5092,-0.1571
4.6500,-6.5095,-0.1575
4.6542,-6.5092,-0.1581
4.6583,-6.5083,-0.1587
4.6625,-6.5069,-0.1593
4.6667,-6.5049,-0.1601
4.6708,-6.5023,-0.1610
4.6750,-6.4991,-0.1619
4.6792,-6.4951,-0.1630
4.6833,-6.4905,-0.1641
4.6875,-6.4831,-0.1584
4.6917,-6.4865,-0.1586
4.6958,-6.4886,-0.1578
4.7000,-6.4913,-0.1573
4.7042,-6.4941,-0.1568
4.7083,-6.4969,-0.1564
4.7125,-6.4998,-0.1561
4.7167,-6.5027,-0.1559
4.7208,-6.5054,-0.1557
4.7250,-6.5078,-0.1556
4.7292,-6.5101,-0.1557
4.7333,-6.5120,-0.1558
4.7375,-6.5134,-0.1560
4.7417,-6.5145,-0.1562
4.7458,-6.5151,-0.1566
4.7500,-6.5153,-0.1570
4.7542,-6.5149,-0.1575
4.7583,-6.5140,-0.1581
4.7625,-6.5126,-0.1588
4.7667,-6.5106,-0.1595
4.7708,-6.5079,-0.1604
4.7750,-6.5046,-0.1614
4.7792,-6.5007,-0.1624
4.7833,-6.4961,-0.1636
4.7875,-6.4886,-0.1578
4.7917,-6.4920,-0.1580
4.7958,-6.4940,-0.1573
4.8000,-6.4966,-0.1568
4.8042,-6.4994,-0.1563
4.8083,-6.5022,-0.1559
4.8125,-6.5051,-0.1556
4.8167,-6.5079,-0.1553
4.8208,-6.5106,-0.1552
4.8250,-6.5130,-0.1551
4.8292,-6.5152,-0.1551
4.8333,-6.5170,-0.1552
4.8375,-6.5185,-0.1554
4.8417,-6.5196,-0.1556
4.8458,-6.5203,-0.1560
4.8500,-6.5205,-0.1564
4.8542,-6.5203,-0.1569
4.8583,-6.5194,-0.1575
4.8625,-6.5180,-0.1582
4.8667,-6.5160,-0.1589
4.8708,-6.5134,-0.1598
4.8750,-6.5102,-0.1607
4.8792,-6.5063,-0.1618
4.8833,-6.5017,-0.1629
4.8875,-6.4944,-0.1573
4.8917,-6.4977,-0.1575
4.8958,-6.4997,-0.1567
4.9000,-6.5022,-0.1562
4.9042,-6.5049,-0.1557
4.9083,-6.5077,-0.1553
4.9125,-6.5106,-0.1550
4.9167,-6.5134,-0.1547
4.9208,-6.5162,-0.1545
4.9250,-6.5187,-0.1544
4.9292,-6.5210,-0.1544
4.9333,-6.5230,-0.1545
4.9375,-6.5247,-0.1546
4.9417,-6.5259,-0.1549
4.9458,-6.5268,-0.1552
4.9500,-6.5271,-0.1556
4.9542,-6.5270,-0.1561
4.9583,-6.5263,-0.1566
4.9625,-6.5250,-0.1573
4.9667,-6.5232,-0.1581
4.9708,-6.5207,-0.1589
4.9750,-6.5176,-0.1598
4.9792,-6.5139,-0.1609
4.9833,-6.5094,-0.1620
4.9875,-6.5027,-0.1587
4.9917,-6.4996,-0.1559
4.9958,-6.5036,-0.1557
5.0000,-6.5067,-0.1551
5.0042,-6.5103,-0.1546
5.0083,-6.5138,-0.1542
5.0125,-6.5172,-0.1538
5.0167,-6.5206,-0.1536
5.0208,-6.5238,-0.1534
5.0250,-6.5268,-0.1532
5.0292,-6.5295,-0.1532
5.0333,-6.5319,-0.1532
5.0375,-6.5340,-0.1534
5.0417,-6.5356,-0.1536
5.0458,-6.5368,-0.1539
5.0500,-6.5374,-0.1542
5.0542,-6.5376,-0.1547
5.0583,-6.5372,-0.1553
5.0625,-6.5363,-0.1559
5.0667,-6.5347,-0.1566
5.0708,-6.5325,-0.1574
5.0750,-6.5297,-0.1583
5.0792,-6.5262,-0.1593
5.0833,-6.5220,-0.1604
5.0875,-6.5171,-0.1616
5.0917,-6.5094,-0.1559
5.0958,-6.5125,-0.1562
5.1000,-6.5143,-0.1554
5.1042,-6.5166,-0.1549
5.1083,-6.5191,-0.1545
5.1125,-6.5217,-0.1541
5.1167,-6.5243,-0.1538
5.1208,-6.5269,-0.1536
5.1250,-6.5293,-0.1534
5.1292,-6.5316,-0.1534
5.1333,-6.5336,-0.1534
5.1375,-6.5353,-0.1536
5.1417,-6.5366,-0.1537
5.1458,-6.5374,-0.1540
5.1500,-6.5379,-0.1544
5.1542,-6.5379,-0.1548
5.1583,-6.5373,-0.1553
5.1625,-6.5363,-0.1559
5.1667,-6.5347,-0.1566
5.1708,-6.5325,-0.1574
5.1750,-6.5297,-0.1583
5.1792,-6.5263,-0.1592
5.1833,-6.5222,-0.1603
5.1875,-6.5175,-0.1614
5.1917,-6.5099,-0.1558
5.1958,-6.5132,-0.1560
5.2000,-6.5150,-0.1552
5.2042,-6.5175,-0.1547
5.2083,-6.5202,-0.1542
5.2125,-6.5230,-0.1538
5.2167,-6.5258,-0.1535
5.2208,-6.5286,-0.1533
5.2250,-6.5312,-0.1531
5.2292,-6.5336,-0.1530
5.2333,-6.5357,-0.1530
5.2375,-6.5376,-0.1530
5.2417,-6.5392,-0.1532
5.2458,-6.5404,-0.1534
5.2500,-6.5411,-0.1537
5.2542,-6.5414,-0.1541
5.2583,-6.5412,-0.1546
5.2625,-6.5404,-0.1552
5.2667,-6.5391,-0.1559
5.2708,-6.5373,-0.1566
5.2750,-6.5348,-0.1574
5.2792,-6.5317,-0.1584
5.2833,-6.5279,-0.1594
5.2875,-6.5235,-0.1605
5.2917,-6.5183,-0.1617
5.2958,-6.5103,-0.1559
5.3000,-6.5134,-0.1562
5.3042,-6.5150,-0.1555
5.3083,-6.5172,-0.1550
5.3125,-6.5195,-0.1546
5.3167,-6.5219,-0.1543
5.3208,-6.5243,-0.1540
5.3250,-6.5267,-0.1538
5.3292,-6.5289,-0.1537
5.3333,-6.5309,-0.1537
5.3375,-6.5327,-0.1537
5.3417,-6.5341,-0.1539
5.3458,-6.5352,-0.1541
5.3500,-6.5359,-0.1544
5.3542,-6.5361,-0.1548
5.3583,-6.5359,-0.1552
5.3625,-6.5351,-0.1558
5.3667,-6.5338,-0.1565
5.3708,-6.5319,-0.1572
5.3750,-6.5293,-0.1580
5.3792,-6.5262,-0.1589
5.3833,-6.5225,-0.1599
5.3875,-6.5181,-0.1610
5.3917,-6.5130,-0.1622
5.3958,-6.5051,-0.1565
5.4000,-6.5081,-0.1567
5.4042,-6.5098,-0.1560
5.4083,-6.5120,-0.1555
5.4125,-6.5144,-0.1550
5.4167,-6.5170,-0.1547
5.4208,-6.5195,-0.1544
5.4250,-6.5220,-0.1542
5.4292,-6.5244,-0.1540
5.4333,-6.5266,-0.1540
5.4375,-6.5285,-0.1540
5.4417,-6.5301,-0.1541
5.4458,-6.5314,-0.1543
5.4500,-6.5322,-0.1546
5.4542,-6.5325,-0.1550
5.4583,-6.5324,-0.1554
5.4625,-6.5318,-0.1560
5.4667,-6.5307,-0.1566
5.4708,-6.5290,-0.1573
5.4750,-6.5268,-0.1581
5.4792,-6.5239,-0.1589
5.4833,-6.5204,-0.1599
5.4875,-6.5162,-0.1610
5.4917,-6.5114,-0.1621
5.4958,-6.5038,-0.1564
5.5000,-6.5070,-0.1566
5.5042,-6.5089,-0.1559
5.5083,-6.5113,-0.1554
5.5125,-6.5140,-0.1549
5.5167,-6.5167,-0.1545
5.5208,-6.5195,-0.1542
5.5250,-6.5222,-0.1539
5.5292,-6.5248,-0.1538
5.5333,-6.5272,-0.1537
5.5375,-6.5293,-0.1537
5.5417,-6.5312,-0.1539
5.5458,-6.5326,-0.1540
5.5500,-6.5336,-0.1543
5.5542,-6.5342,-0.1546
5.5583,-6.5343,-0.1550
5.5625,-6.5340,-0.1555
5.5667,-6.5331,-0.1561
5.5708,-6.5316,-0.1568
5.5750,-6.5296,-0.1575
5.5792,-6.5270,-0.1584
5.5833,-6.5237,-0.1593
5.5875,-6.5198,-0.1604
5.5917,-6.5152,-0.1615
5.5958,-6.5100,-0.1627
5.6000,-6.5018,-0.1569
5.6042,-6.5048,-0.1572
5.6083,-6.5063,-0.1565
5.6125,-6.5084,-0.1561
5.6167,-6.5106,-0.1557
5.6208,-6.5129,-0.1554
5.6250,-6.5152,-0.1551
5.6292,-6.5174,-0.1550
5.6333,-6.5194,-0.1549
5.6375,-6.5212,-0.1549
5.6417,-6.5228,-0.1550
5.6458,-6.5240,-0.1551
5.6500,-6.5249,-0.1554
5.6542,-6.5253,-0.1557
5.6583,-6.5253,-0.1561
5.6625,-6.5249,-0.1566
5.6667,-6.5239,-0.1572
5.6708,-6.5223,-0.1579
5.6750,-6.5202,-0.1586
5.6792,-6.5175,-0.1595
5.6833,-6.5141,-0.1605
5.6875,-6.5100,-0.1615
5.6917,-6.5053,-0.1626
5.6958,-6.5000,-0.1638
5.7000,-6.4917,-0.1580
5.7042,-6.4946,-0.1583
5.7083,-6.4960,-0.1576
5.7125,-6.4981,-0.1572
5.7167,-6.5002,-0.1568
5.7208,-6.5025,-0.1565
5.7250,-6.5047,-0.1562
5.7292,-6.5069,-0.1561
5.7333,-6.5089,-0.1560
5.7375,-6.5107,-0.1560
5.7417,-6.5122,-0.1561
5.7458,-6.5134,-0.1563
5.7500,-6.5142,-0.1565
5.7542,-6.5147,-0.1568
5.7583,-6.5146,-0.1573
5.7625,-6.5141,-0.1578
5.7667,-6.5131,-0.1584
5.7708,-6.5115,-0.1590
5.7750,-6.5093,-0.1598
5.7792,-6.5066,-0.1607
5.7833,-6.5031,-0.1617
5.7875,-6.4990,-0.1627
5.7917,-6.4943,-0.1638
5.7958,-6.4867,-0.1581
5.8000,-6.4900,-0.1583
5.8042,-6.4920,-0.1575
5.8083,-6.4946,-0.1570
5.8125,-6.4973,-0.1565
5.8167,-6.5002,-0.1561
5.8208,-6.5030,-0.1558
5.8250,-6.5059,-0.1556
5.8292,-6.5085,-0.1554
5.8333,-6.5109,-0.1553
5.8375,-6.5131,-0.1553
5.8417,-6.5150,-0.1554
5.8458,-6.5166,-0.1555
5.8500,-6.5178,-0.1558
5.8542,-6.5186,-0.1561
5.8583,-6.5188,-0.1565
5.8625,-6.5186,-0.1570
5.8667,-6.5179,-0.1576
5.8708,-6.5165,-0.1582
5.8750,-6.5146,-0.1590
5.8792,-6.5121,-0.1598
5.8833,-6.5089,-0.1608
5.8875,-6.5051,-0.1618
5.8917,-6.5006,-0.1629
5.8958,-6.4955,-0.1642
5.9000,-6.4873,-0.1583
5.9042,-6.4904,-0.1586
5.9083,-6.4920,-0.1579
5.9125,-6.4942,-0.1575
5.9167,-6.4964,-0.1571
5.9208,-6.4987,-0.1568
5.9250,-6.5010,-0.1566
5.9292,-6.5032,-0.1564
5.9333,-6.5053,-0.1564
5.9375,-6.5071,-0.1564
5.9417,-6.5086,-0.1565
5.9458,-6.5099,-0.1566
5.9500,-6.5107,-0.1569
5.9542,-6.5111,-0.1572
5.9583,-6.5111,-0.1577
5.9625,-6.5105,-0.1582
5.9667,-6.5095,-0.1588
5.9708,-6.5079,-0.1595
5.9750,-6.5057,-0.1602
5.9792,-6.5029,-0.1611
5.9833,-6.4994,-0.1621
5.9875,-6.4952,-0.1632
5.9917,-6.4904,-0.1643
5.9958,-6.4828,-0.1585
6.0000,-6.4861,-0.1587
6.0042,-6.4880,-0.1580
6.0083,-6.4906,-0.1575
6.0125,-6.4932,-0.1570
6.0167,-6.4960,-0.1566
6.0208,-6.4988,-0.1563
6.0250,-6.5016,-0.1560
6.0292,-6.5042,-0.1559
6.0333,-6.5067,-0.1559
6.0375,-6.5088,-0.1559
6.0417,-6.5106,-0.1559
6.0458,-6.5120,-0.1561
6.0500,-6.5131,-0.1564
6.0542,-6.5137,-0.1567
6.0583,-6.5138,-0.1571
6.0625,-6.5135,-0.1576
6.0667,-6.5126,-0.1582
6.0708,-6.5112,-0.1589
6.0750,-6.5091,-0.1597
6.0792,-6.5065,-0.1606
6.0833,-6.5032,-0.1615
6.0875,-6.4992,-0.1626
6.0917,-6.4946,-0.1637
6.0958,-6.4872,-0.1580
6.1000,-6.4905,-0.1582
6.1042,-6.4925,-0.1574
6.1083,-6.4952,-0.1569
6.1125,-6.4979,-0.1564
6.1167,-6.5008,-0.1560
6.1208,-6.5036,-0.1557
6.1250,-6.5065,-0.1555
6.1292,-6.5091,-0.1554
6.1333,-6.5115,-0.1553
6.1375,-6.5136,-0.1553
6.1417,-6.5155,-0.1554
6.1458,-6.5170,-0.1555
6.1500,-6.5182,-0.1558
6.1542,-6.5188,-0.1561
6.1583,-6.5191,-0.1565
6.1625,-6.5188,-0.1570
6.1667,-6.5179,-0.1576
6.1708,-6.5165,-0.1583
6.1750,-6.5146,-0.1591
6.1792,-6.5120,-0.1599
6.1833,-6.5087,-0.1609
6.1875,-6.5048,-0.1619
6.1917,-6.5002,-0.1631
6.1958,-6.4929,-0.1574
6.2000,-6.4962,-0.1576
6.2042,-6.4982,-0.1569
6.2083,-6.5007,-0.1564
6.2125,-6.5034,-0.1559
6.2167,-6.5062,-0.1554
6.2208,-6.5091,-0.1551
6.2250,-6.5119,-0.1549
6.2292,-6.5146,-0.1547
6.2333,-6.5172,-0.1546
6.2375,-6.5195,-0.1546
6.2417,-6.5215,-0.1546
6.2458,-6.5232,-0.1548
6.2500,-6.5244,-0.1550
6.2542,-6.5252,-0.1553
6.2583,-6.5256,-0.1558
6.2625,-6.5254,-0.1562
6.2667,-6.5247,-0.1568
6.2708,-6.5235,-0.1575
6.2750,-6.5216,-0.1582
6.2792,-6.5191,-0.1591
6.2833,-6.5160,-0.1600
6.2875,-6.5122,-0.1611
6.2917,-6.5078,-0.1622
6.2958,-6.5027,-0.1634
6.3000,-6.4946,-0.1575
6.3042,-6.4977,-0.1578
6.3083,-6.4994,-0.1571
6.3125,-6.5016,-0.1567
6.3167,-6.5039,-0.1563
6.3208,-6.5063,-0.1560
6.3250,-6.5087,-0.1557
6.3292,-6.5109,-0.1556
6.3333,-6.5131,-0.1555
6.3375,-6.5150,-0.1555
6.3417,-6.5166,-0.1556
6.3458,-6.5179,-0.1557
6.3500,-6.5188,-0.1560
6.3542,-6.5193,-0.1563
6.3583,-6.5194,-0.1567
6.3625,-6.5189,-0.1572
6.3667,-6.5180,-0.1578
6.3708,-6.5165,-0.1585
6.3750,-6.5144,-0.1592
6.3792,-6.5117,-0.1601
6.3833,-6.5084,-0.1610
6.3875,-6.5044,-0.1621
6.3917,-6.4997,-0.1632
6.3958,-6.4943,-0.1644
6.4000,-6.4860,-0.1585
6.4042,-6.4890,-0.1589
6.4083,-6.4905,-0.1582
6.4125,-6.4926,-0.1577
6.4167,-6.4948,-0.1573
6.4208,-6.4971,-0.1570
6.4250,-6.4993,-0.1568
6.4292,-6.5015,-0.1566
6.4333,-6.5035,-0.1566
6.4375,-6.5053,-0.1566
6.4417,-6.5068,-0.1567
6.4458,-6.5080,-0.1568
6.4500,-6.5088,-0.1571
6.4542,-6.5092,-0.1574
6.4583,-6.5092,-0.1579
6.4625,-6.5086,-0.1584
6.4667,-6.5076,-0.1590
6.4708,-6.5060,-0.1597
6.4750,-6.5038,-0.1604
6.4792,-6.5010,-0.1613
6.4833,-6.4975,-0.1623
6.4875,-6.4934,-0.1633
6.4917,-6.4886,-0.1645
6.4958,-6.4810,-0.1588
6.5000,-6.4842,-0.1590
6.5042,-6.4861,-0.1582
6.5083,-6.4886,-0.1577
6.5125,-6.4913,-0.1572
6.5167,-6.4941,-0.1568
6.5208,-6.4968,-0.1565
6.5250,-6.4995,-0.1563
6.5292,-6.5020,-0.1561
6.5333,-6.5044,-0.1560
6.5375,-6.5066,-0.1560
6.5417,-6.5084,-0.1561
6.5458,-6.5099,-0.1563
6.5500,-6.5110,-0.1565
6.5542,-6.5117,-0.1569
6.5583,-6.5119,-0.1573
6.5625,-6.5116,-0.1578
6.5667,-6.5107,-0.1584
6.5708,-6.5093,-0.1591
6.5750,-6.5073,-0.1599
6.5792,-6.5047,-0.1607
6.5833,-6.5014,-0.1617
6.5875,-6.4975,-0.1627
6.5917,-6.4929,-0.1639
6.5958,-6.4854,-0.1581
6.6000,-6.4889,-0.1583
6.6042,-6.4909,-0.1576
6.6083,-6.4936,-0.1571
6.6125,-6.4964,-0.1566
6.6167,-6.4993,-0.1562
6.6208,-6.5022,-0.1559
6.6250,-6.5050,-0.1556
6.6292,-6.5077,-0.1555
6.6333,-6.5102,-0.1554
6.6375,-6.5124,-0.1554
6.6417,-6.5143,-0.1556
6.6458,-6.5157,-0.1557
6.6500,-6.5168,-0.1560
6.6542,-6.5174,-0.1563
6.6583,-6.5176,-0.1567
6.6625,-6.5173,-0.1572
6.6667,-6.5164,-0.1578
6.6708,-6.5149,-0.1585
6.6750,-6.5129,-0.1593
6.6792,-6.5103,-0.1602
6.6833,-6.5070,-0.1611
6.6875,-6.5030,-0.1622
6.6917,-6.4984,-0.1633
6.6958,-6.4910,-0.1576
6.7000,-6.4943,-0.1578
6.7042,-6.4963,-0.1571
6.7083,-6.4988,-0.1566
6.7125,-6.5014,-0.1561
6.7167,-6.5042,-0.1557
6.7208,-6.5070,-0.1554
6.7250,-6.5098,-0.1551
6.7292,-6.5125,-0.1549
6.7333,-6.5150,-0.1549
6.7375,-6.5172,-0.1548
6.7417,-6.5192,-0.1549
6.7458,-6.5208,-0.1551
6.7500,-6.5220,-0.1553
6.7542,-6.5228,-0.1556
6.7583,-6.5230,-0.1561
6.7625,-6.5228,-0.1566
6.7667,-6.5221,-0.1571
6.7708,-6.5208,-0.1578
6.7750,-6.5188,-0.1586
6.7792,-6.5163,-0.1594
6.7833,-6.5131,-0.1604
6.7875,-6.5093,-0.1614
6.7917,-6.5048,-0.1625
6.7958,-6.4975,-0.1569
6.8000,-6.5009,-0.1571
6.8042,-6.5030,-0.1563
6.8083,-6.5057,-0.1558
6.8125,-6.5084,-0.1553
6.8167,-6.5113,-0.1549
6.8208,-6.5142,-0.1545
6.8250,-6.5171,-0.1543
6.8292,-6.5199,-0.1541
6.8333,-6.5225,-0.1540
6.8375,-6.5249,-0.1539
6.8417,-6.5269,-0.1540
6.8458,-6.5287,-0.1541
6.8500,-6.5300,-0.1544
6.8542,-6.5309,-0.1547
6.8583,-6.5314,-0.1551
6.8625,-6.5313,-0.1555
6.8667,-6.5307,-0.1561
6.8708,-6.5295,-0.1568
6.8750,-6.5277,-0.1575
6.8792,-6.5254,-0.1583
6.8833,-6.5224,-0.1592
6.8875,-6.5187,-0.1603
6.8917,-6.5144,-0.1614
6.8958,-6.5094,-0.1626
6.9000,-6.5014,-0.1568
6.9042,-6.5046,-0.1571
6.9083,-6.5062,-0.1563
6.9125,-6.5085,-0.1559
6.9167,-6.5109,-0.1555
6.9208,-6.5134,-0.1551
6.9250,-6.5158,-0.1549
6.9292,-6.5182,-0.1547
6.9333,-6.5205,-0.1546
6.9375,-6.5225,-0.1545
6.9417,-6.5243,-0.1546
6.9458,-6.5258,-0.1547
6.9500,-6.5269,-0.1549
6.9542,-6.5276,-0.1552
6.9583,-6.5279,-0.1556
6.9625,-6.5276,-0.1561
6.9667,-6.5269,-0.1567
6.9708,-6.5256,-0.1573
6.9750,-6.5236,-0.1581
6.9792,-6.5211,-0.1589
6.9833,-6.5179,-0.1598
6.9875,-6.5141,-0.1608
6.9917,-6.5097,-0.1619
6.9958,-6.5046,-0.1631
7.0000,-6.4967,-0.1573
7.0042,-6.4997,-0.1576
7.0083,-6.5014,-0.1569
7.0125,-6.5036,-0.1564
7.0167,-6.5060,-0.1560
7.0208,-6.5085,-0.1556
7.0250,-6.5110,-0.1553
7.0292,-6.5134,-0.1551
7.0333,-6.5157,-0.1550
7.0375,-6.5178,-0.1550
7.0417,-6.5197,-0.1550
7.0458,-6.5212,-0.1551
7.0500,-6.5224,-0.1553
7.0542,-6.5232,-0.1556
7.0583,-6.5235,-0.1560
7.0625,-6.5233,-0.1565
7.0667,-6.5225,-0.1571
7.0708,-6.5213,-0.1577
7.0750,-6.5194,-0.1584
7.0792,-6.5170,-0.1592
7.0833,-6.5140,-0.1601
7.0875,-6.5103,-0.1611
7.0917,-6.5060,-0.1622
7.0958,-6.5010,-0.1634
7.1000,-6.4932,-0.1576
7.1042,-6.4964,-0.1578
7.1083,-6.4981,-0.1571
7.1125,-6.5005,-0.1566
7.1167,-6.5030,-0.1562
7.1208,-6.5056,-0.1558
7.1250,-6.5082,-0.1555
7.1292,-6.5107,-0.1553
7.1333,-6.5131,-0.1552
7.1375,-6.5152,-0.1552
7.1417,-6.5172,-0.1552
7.1458,-6.5188,-0.1553
7.1500,-6.5200,-0.1555
7.1542,-6.5209,-0.1558
7.1583,-6.5212,-0.1562
7.1625,-6.5212,-0.1567
7.1667,-6.5205,-0.1572
7.1708,-6.5193,-0.1579
7.1750,-6.5175,-0.1586
7.1792,-6.5151,-0.1594
7.1833,-6.5121,-0.1603
7.1875,-6.5085,-0.1613
7.1917,-6.5042,-0.1623
7.1958,-6.4993,-0.1635
7.2000,-6.4915,-0.1577
7.2042,-6.4947,-0.1580
7.2083,-6.4965,-0.1572
7.2125,-6.4989,-0.1568
7.2167,-6.5014,-0.1563
7.2208,-6.5040,-0.1559
7.2250,-6.5066,-0.1557
7.2292,-6.5092,-0.1555
7.2333,-6.5116,-0.1553
7.2375,-6.5138,-0.1553
7.2417,-6.5158,-0.1553
7.2458,-6.5174,-0.1554
7.2500,-6.5187,-0.1556
7.2542,-6.5196,-0.1559
7.2583,-6.5200,-0.1563
7.2625,-6.5199,-0.1568
7.2667,-6.5192,-0.1573
7.2708,-6.5181,-0.1579
7.2750,-6.5163,-0.1586
7.2792,-6.5140,-0.1594
7.2833,-6.5111,-0.1603
7.2875,-6.5075,-0.1613
7.2917,-6.5033,-0.1624
7.2958,-6.4984,-0.1636
7.3000,-6.4907,-0.1578
7.3042,-6.4939,-0.1580
7.3083,-6.4957,-0.1573
7.3125,-6.4981,-0.1568
7.3167,-6.5006,-0.1564
7.3208,-6.5033,-0.1560
7.3250,-6.5059,-0.1557
7.3292,-6.5085,-0.1555
7.3333,-6.5110,-0.1554
7.3375,-6.5132,-0.1553
7.3417,-6.5152,-0.1553
7.3458,-6.5169,-0.1554
7.3500,-6.5182,-0.1557
7.3542,-6.5191,-0.1560
7.3583,-6.5194,-0.1563
7.3625,-6.5194,-0.1568
7.3667,-6.5188,-0.1573
7.3708,-6.5177,-0.1579
7.3750,-6.5160,-0.1586
7.3792,-6.5137,-0.1594
7.3833,-6.5108,-0.1603
7.3875,-6.5073,-0.1613
7.3917,-6.5032,-0.1624
7.3958,-6.4983,-0.1635
7.4000,-6.4906,-0.1577
7.4042,-6.4939,-0.1580
7.4083,-6.4958,-0.1572
7.4125,-6.4982,-0.1568
7.4167,-6.5008,-0.1563
7.4208,-6.5035,-0.1559
7.4250,-6.5062,-0.1556
7.4292,-6.5088,-0.1554
7.4333,-6.5113,-0.1553
7.4375,-6.5136,-0.1552
7.4417,-6.5156,-0.1553
7.4458,-6.5173,-0.1554
7.4500,-6.5187,-0.1556
7.4542,-6.5196,-0.1558
7.4583,-6.5201,-0.1562
7.4625,-6.5201,-0.1567
7.4667,-6.5195,-0.1572
7.4708,-6.5183,-0.1578
7.4750,-6.5166,-0.1586
7.4792,-6.5144,-0.1594
7.4833,-6.5115,-0.1602
7.4875,-6.5080,-0.1612
7.4917,-6.5038,-0.1623
7.4958,-6.4990,-0.1634
7.5000,-6.4913,-0.1577
7.5042,-6.4945,-0.1580
7.5083,-6.4963,-0.1572
7.5125,-6.4987,-0.1567
7.5167,-6.5013,-0.1563
7.5208,-6.5040,-0.1559
7.5250,-6.5067,-0.1556
7.5292,-6.5093,-0.1554
7.5333,-6.5118,-0.1552
7.5375,-6.5141,-0.1552
7.5417,-6.5161,-0.1552
7.5458,-6.5178,-0.1553
7.5500,-6.5191,-0.1555
7.5542,-6.5200,-0.1558
7.5583,-6.5205,-0.1561
7.5625,-6.5205,-0.1566
7.5667,-6.5200,-0.1571
7.5708,-6.5190,-0.1577
7.5750,-6.5174,-0.1584
7.5792,-6.5152,-0.1592
7.5833,-6.5124,-0.1601
7.5875,-6.5090,-0.1610
7.5917,-6.5049,-0.1621
7.5958,-6.5002,-0.1633
7.6000,-6.4925,-0.1575
7.6042,-6.4958,-0.1577
7.6083,-6.4978,-0.1570
7.6125,-6.5003,-0.1565
7.6167,-6.5029,-0.1560
7.6208,-6.5057,-0.1556
7.6250,-6.5084,-0.1553
7.6292,-6.5111,-0.1551
7.6333,-6.5137,-0.1550
7.6375,-6.5160,-0.1549
7.6417,-6.5182,-0.1549
7.6458,-6.5200,-0.1550
7.6500,-6.5214,-0.1552
7.6542,-6.5223,-0.1555
7.6583,-6.5229,-0.1558
7.6625,-6.5229,-0.1563
7.6667,-6.5224,-0.1568
7.6708,-6.5214,-0.1574
7.6750,-6.5199,-0.1581
7.6792,-6.5178,-0.1589
7.6833,-6.5150,-0.1598
7.6875,-6.5116,-0.1607
7.6917,-6.5076,-0.1618
7.6958,-6.5029,-0.1629
7.7000,-6.4954,-0.1572
7.7042,-6.4986,-0.1574
7.7083,-6.5006,-0.1567
7.7125,-6.5031,-0.1561
7.7167,-6.5058,-0.1557
7.7208,-6.5086,-0.1553
7.7250,-6.5114,-0.1550
7.7292,-6.5142,-0.1547
7.7333,-6.5168,-0.1546
7.7375,-6.5191,-0.1545
7.7417,-6.5213,-0.1545
7.7458,-6.5231,-0.1546
7.7500,-6.5246,-0.1548
7.7542,-6.5257,-0.1550
7.7583,-6.5264,-0.1553
7.7625,-6.5266,-0.1558
7.7667,-6.5263,-0.1563
7.7708,-6.5254,-0.1569
7.7750,-6.5240,-0.1575
7.7792,-6.5220,-0.1583
7.7833,-6.5194,-0.1592
7.7875,-6.5162,-0.1601
7.7917,-6.5123,-0.1611
7.7958,-6.5077,-0.1623
7.8000,-6.5025,-0.1635
7.8042,-6.4943,-0.1576
7.8083,-6.4973,-0.1580
7.8125,-6.4988,-0.1573
7.8167,-6.5009,-0.1569
7.8208,-6.5031,-0.1565
7.8250,-6.5054,-0.1562
7.8292,-6.5076,-0.1559
7.8333,-6.5098,-0.1558
7.8375,-6.5118,-0.1557
7.8417,-6.5136,-0.1557
7.8458,-6.5151,-0.1558
7.8500,-6.5163,-0.1560
7.8542,-6.5171,-0.1562
7.8583,-6.5175,-0.1566
7.8625,-6.5174,-0.1570
7.8667,-6.5169,-0.1575
7.8708,-6.5158,-0.1581
7.8750,-6.5142,-0.1588
7.8792,-6.5120,-0.1596
7.8833,-6.5092,-0.1605
7.8875,-6.5058,-0.1615
7.8917,-6.5016,-0.1625
7.8958,-6.4968,-0.1636
7.9000,-6.4892,-0.1579
7.9042,-6.4924,-0.1581
7.9083,-6.4943,-0.1573
7.9125,-6.4969,-0.1568
7.9167,-6.4996,-0.1563
7.9208,-6.5024,-0.1559
7.9250,-6.5052,-0.1556
7.9292,-6.5080,-0.1554
7.9333,-6.5106,-0.1552
7.9375,-6.5130,-0.1551
7.9417,-6.5152,-0.1551
7.9458,-6.5170,-0.1552
7.9500,-6.5186,-0.1554
7.9542,-6.5197,-0.1556
7.9583,-6.5205,-0.1559
7.9625,-6.5207,-0.1563
7.9667,-6.5205,-0.1568
7.9708,-6.5197,-0.1574
7.9750,-6.5183,-0.1581
7.9792,-6.5164,-0.1588
7.9833,-6.5139,-0.1597
7.9875,-6.5107,-0.1606
7.9917,-6.5068,-0.1617
7.9958,-6.5023,-0.1628
8.0000,-6.4950,-0.1572
8.0042,-6.4984,-0.1574
8.0083,-6.5004,-0.1566
8.0125,-6.5029,-0.1560
8.0167,-6.5057,-0.1555
8.0208,-6.5086,-0.1551
8.0250,-6.5116,-0.1548
8.0292,-6.5145,-0.1545
8.0333,-6.5173,-0.1543
8.0375,-6.5200,-0.1542
8.0417,-6.5224,-0.1542
8.0458,-6.5245,-0.1542
8.0500,-6.5262,-0.1544
8.0542,-6.5276,-0.1546
8.0583,-6.5285,-0.1549
8.0625,-6.5290,-0.1553
8.0667,-6.5289,-0.1558
8.0708,-6.5283,-0.1563
8.0750,-6.5272,-0.1570
8.0792,-6.5254,-0.1577
8.0833,-6.5230,-0.1586
8.0875,-6.5200,-0.1595
8.0917,-6.5164,-0.1605
8.0958,-6.5121,-0.1616
8.1000,-6.5071,-0.1628
8.1042,-6.4991,-0.1570
8.1083,-6.5023,-0.1573
8.1125,-6.5039,-0.1566
8.1167,-6.5062,-0.1561
8.1208,-6.5086,-0.1557
8.1250,-6.5110,-0.1554
8.1292,-6.5135,-0.1551
8.1333,-6.5159,-0.1549
8.1375,-6.5181,-0.1548
8.1417,-6.5202,-0.1548
8.1458,-6.5219,-0.1549
8.1500,-6.5234,-0.1550
8.1542,-6.5245,-0.1552
8.1583,-6.5252,-0.1555
8.1625,-6.5254,-0.1559
8.1667,-6.5251,-0.1564
8.1708,-6.5244,-0.1570
8.1750,-6.5230,-0.1576
8.1792,-6.4879,-0.0615
8.1833,-6.5271,-0.0523
8.1875,-6.5975,-0.0435
8.1917,-6.6933,-0.0364
8.1958,-6.8036,-0.0305
8.2000,-6.9213,-0.0253
8.2042,-7.0428,-0.0204
8.2083,-7.1658,-0.0161
8.2125,-7.2885,-0.0120
8.2167,-7.4092,-0.0083
8.2208,-7.5268,-0.0049
8.2250,-7.6404,-0.0016
8.2292,-7.7933,0.0220
8.2333,-7.9611,0.0265
8.2375,-8.1271,0.0293
8.2417,-8.2869,0.0312
8.2458,-8.4379,0.0327
8.2500,-8.5786,0.0338
8.2542,-8.7079,0.0347
8.2583,-8.8293,0.0320
8.2625,-8.9334,0.0314
8.2667,-9.0215,0.0309
8.2708,-9.0957,0.0302
8.2750,-9.1576,0.0293
8.2792,-9.2083,0.0285
8.2833,-9.2511,0.0371
8.2875,-9.3065,0.0368
8.2917,-9.3577,0.0352
8.2958,-9.3994,0.0343
8.3000,-9.4326,0.0333
8.3042,-9.4573,0.0323
8.3083,-9.4648,0.0339
8.3125,-9.4698,0.0353
8.3167,-9.4787,0.0345
8.3208,-9.4850,0.0342
8.3250,-9.4883,0.0340
8.3292,-9.4893,0.0338
8.3333,-9.4882,0.0336
8.3375,-9.4873,0.0317
8.3417,-9.4805,0.0295
8.3458,-9.4628,0.0277
8.3500,-9.4319,0.0260
8.3542,-9.3867,0.0245
8.3583,-9.3258,0.0256
8.3625,-9.2621,0.0264
8.3667,-9.2090,0.0250
8.3708,-9.1719,0.0232
8.3750,-9.1525,0.0212
8.3792,-9.1465,0.0196
8.3833,-9.1473,0.0187
8.3875,-9.1498,0.0183
8.3917,-9.1513,0.0181
8.3958,-9.1511,0.0180
8.4000,-9.1492,0.0179
8.4042,-9.1477,0.0157
8.4083,-9.1378,0.0139
8.4125,-9.1132,0.0139
8.4167,-9.0787,0.0150
8.4208,-9.0449,0.0147
8.4250,-9.0168,0.0140
8.4292,-8.9963,0.0131
8.4333,-8.9831,0.0122
8.4375,-8.9755,0.0114
8.4417,-8.9715,0.0109
8.4458,-8.9692,0.0106
8.4500,-8.9675,0.0103
8.4542,-8.9655,0.0102
8.4583,-8.9631,0.0101
8.4625,-8.9601,0.0099
8.4667,-8.9567,0.0098
8.4708,-8.9530,0.0097
8.4750,-8.9492,0.0096
8.4792,-8.9454,0.0094
8.4833,-8.9416,0.0093
8.4875,-8.9385,0.0082
8.4917,-8.9321,0.0074
8.4958,-8.9199,0.0078
8.5000,-8.9063,0.0079
8.5042,-8.8939,0.0076
8.5083,-8.8839,0.0073
8.5125,-8.8765,0.0069
8.5167,-8.8712,0.0066
8.5208,-8.8675,0.0063
8.5250,-8.8649,0.0061
8.5292,-8.8627,0.0060
8.5333,-8.8608,0.0058
8.5375,-8.8589,0.0057
8.5417,-8.8569,0.0056
8.5458,-8.8548,0.0055
8.5500,-8.8531,0.0043
8.5542,-8.8462,0.0046
8.5583,-8.8370,0.0047
8.5625,-8.8282,0.0046
8.5667,-8.8207,0.0044
8.5708,-8.8149,0.0042
8.5750,-8.8106,0.0039
8.5792,-8.8076,0.0037
8.5833,-8.8053,0.0036
8.5875,-8.8036,0.0035
8.5917,-8.8021,0.0034
8.5958,-8.8006,0.0033
8.6000,-8.7992,0.0032
8.6042,-8.7976,0.0031
8.6083,-8.7960,0.0031
8.6125,-8.7943,0.0030
8.6167,-8.7927,0.0029
8.6208,-8.7910,0.0029
8.6250,-8.7893,0.0028
8.6292,-8.7877,0.0027
8.6333,-8.7861,0.0027
8.6375,-8.7846,0.0026
8.6417,-8.7830,0.0025
8.6458,-8.7816,0.0025
8.6500,-8.7801,0.0024
8.6542,-8.7789,0.0021
8.6583,-8.7764,0.0021
8.6625,-8.7733,0.0021
8.6667,-8.7703,0.0020
8.6708,-8.7677,0.0020
8.6750,-8.7655,0.0019
8.6792,-8.7636,0.0018
8.6833,-8.7621,0.0017
8.6875,-8.7608,0.0016
8.6917,-8.7596,0.0016
8.6958,-8.7585,0.0015
8.7000,-8.7574,0.0015
8.7042,-8.7563,0.0014
8.7083,-8.7552,0.0014
8.7125,-8.7541,0.0013
8.7167,-8.7530,0.0013
8.7208,-8.7518,0.0012
8.7250,-8.7507,0.0012
8.7292,-8.7496,0.0011
8.7333,-8.7485,0.0011
8.7375,-8.7475,0.0010
8.7417,-8.7464,0.0010
8.7458,-8.7453,0.0009
8.7500,-8.7443,0.0009
8.7542,-8.7433,0.0009
8.7583,-8.7422,0.0008
8.7625,-8.7412,0.0008
8.7667,-8.7402,0.0007
8.7708,-8.7392,0.0007
8.7750,-8.7382,0.0006
8.7792,-8.7372,0.0006
8.7833,-8.7363,0.0006
8.7875,-8.7353,0.0005
8.7917,-8.7343,0.0005
8.7958,-8.7333,0.0004
8.8000,-8.7324,0.0004
8.8042,-8.7314,0.0003
8.8083,-8.7304,0.0003
8.8125,-8.7295,0.0003
8.8167,-8.7285,0.0002
8.8208,-8.7276,0.0002
8.8250,-8.7266,0.0001
8.8292,-8.7256,0.0001
8.8333,-8.7247,0.0001
8.8375,-8.7237,0.0000
8.8417,-8.7228,-0.0000
8.8458,-8.7218,-0.0001
8.8500,-8.7208,-0.0001
8.8542,-8.7198,-0.0002
8.8583,-8.7189,-0.0002
8.8625,-8.7179,-0.0002
8.8667,-8.7169,-0.0003
8.8708,-8.7159,-0.0003
8.8750,-8.7149,-0.0004
8.8792,-8.7139,-0.0004
8.8833,-8.7129,-0.0005
8.8875,-8.7118,-0.0005
8.8917,-8.7108,-0.0005
8.8958,-8.7098,-0.0006
8.9000,-8.7087,-0.0006
8.9042,-8.7076,-0.0007
8.9083,-8.7066,-0.0007
8.9125,-8.7055,-0.0008
8.9167,-8.7044,-0.0008
8.9208,-8.7033,-0.0009
8.9250,-8.7021,-0.0009
8.9292,-8.7010,-0.0010
8.9333,-8.6998,-0.0010
8.9375,-8.6986,-0.0011
8.9417,-8.6974,-0.0011
8.9458,-8.6962,-0.0012
8.9500,-8.6950,-0.0012
8.9542,-8.6937,-0.0013
8.9583,-8.6925,-0.0013
8.9625,-8.6912,-0.0014
8.9667,-8.6899,-0.0015
8.9708,-8.6885,-0.0015
8.9750,-8.6872,-0.0016
8.9792,-8.6858,-0.0016
8.9833,-8.6844,-0.0017
8.9875,-8.6829,-0.0018
8.9917,-8.6815,-0.0018
8.9958,-8.6800,-0.0019
9.0000,-8.6785,-0.0020
9.0042,-8.6769,-0.0020
9.0083,-8.6753,-0.0021
9.0125,-8.6737,-0.0022
9.0167,-8.6721,-0.0022
9.0208,-8.6704,-0.0023
9.0250,-8.6687,-0.0024
9.0292,-8.6669,-0.0025
9.0333,-8.6652,-0.0025
9.0375,-8.6633,-0.0026
9.0417,-8.6615,-0.0027
9.0458,-8.6596,-0.0028
9.0500,-8.6576,-0.0029
9.0542,-8.6557,-0.0030
9.0583,-8.6536,-0.0030
9.0625,-8.6516,-0.0031
9.0667,-8.6494,-0.0032
9.0708,-8.6473,-0.0033
9.0750,-8.6450,-0.0034
9.0792,-8.6428,-0.0035
9.0833,-8.6405,-0.0036
9.0875,-8.6381,-0.0037
9.0917,-8.6357,-0.0038
9.0958,-8.6332,-0.0040
9.1000,-8.6307,-0.0041
9.1042,-8.6281,-0.0042
9.1083,-8.6254,-0.0043
9.1125,-8.6227,-0.0044
9.1167,-8.6199,-0.0045
9.1208,-8.6171,-0.0047
9.1250,-8.6141,-0.0048
9.1292,-8.6112,-0.0049
9.1333,-8.6081,-0.0051
9.1375,-8.6050,-0.0052
9.1417,-8.6018,-0.0054
9.1458,-8.5985,-0.0055
9.1500,-8.5952,-0.0057
9.1542,-8.5917,-0.0058
9.1583,-8.5882,-0.0060
9.1625,-8.5846,-0.0061
9.1667,-8.5809,-0.0063
9.1708,-8.5772,-0.0065
9.1750,-8.5733,-0.0066
9.1792,-8.5694,-0.0068
9.1833,-8.5653,-0.0070
9.1875,-8.5612,-0.0072
9.1917,-8.5569,-0.0074
9.1958,-8.5526,-0.0076
9.2000,-8.5481,-0.0078
9.2042,-8.5436,-0.0080
9.2083,-8.5389,-0.0082
9.2125,-8.5342,-0.0084
9.2167,-8.5293,-0.0087
9.2208,-8.5243,-0.0089
9.2250,-8.5192,-0.0091
9.2292,-8.5140,-0.0094
9.2333,-8.5086,-0.0096
9.2375,-8.5032,-0.0099
9.2417,-8.4976,-0.0101
9.2458,-8.4919,-0.0104
9.2500,-8.4860,-0.0107
9.2542,-8.4800,-0.0110
9.2583,-8.4739,-0.0113
9.2625,-8.4676,-0.0116
9.2667,-8.4612,-0.0119
9.2708,-8.4547,-0.0122
9.2750,-8.4480,-0.0125
9.2792,-8.4411,-0.0128
9.2833,-8.4341,-0.0132
9.2875,-8.4270,-0.0135
9.2917,-8.4197,-0.0139
9.2958,-8.4122,-0.0143
9.3000,-8.4046,-0.0146
9.3042,-8.3968,-0.0150
9.3083,-8.3889,-0.0154
9.3125,-8.3808,-0.0158
9.3167,-8.3725,-0.0162
9.3208,-8.3640,-0.0167
9.3250,-8.3554,-0.0171
9.3292,-8.3466,-0.0176
9.3333,-8.3376,-0.0180
9.3375,-8.3285,-0.0185
9.3417,-8.3192,-0.0190
9.3458,-8.3096,-0.0195
9.3500,-8.2999,-0.0200
9.3542,-8.2901,-0.0205
9.3583,-8.2800,-0.0211
9.3625,-8.2698,-0.0216
9.3667,-8.2593,-0.0222
9.3708,-8.2487,-0.0228
9.3750,-8.2379,-0.0234
9.3792,-8.2269,-0.0240
9.3833,-8.2157,-0.0247
9.3875,-8.2043,-0.0253
9.3917,-8.1928,-0.0260
9.3958,-8.1810,-0.0267
9.4000,-8.1690,-0.0274
9.4042,-8.1569,-0.0281
9.4083,-8.1446,-0.0289
9.4125,-8.1320,-0.0296
9.4167,-8.1193,-0.0304
9.4208,-8.1064,-0.0312
9.4250,-8.0933,-0.0320
9.4292,-8.0800,-0.0329
9.4333,-8.0665,-0.0337
9.4375,-8.0528,-0.0346
9.4417,-8.0389,-0.0355
9.4458,-8.0249,-0.0365
9.4500,-8.0106,-0.0375
9.4542,-7.9962,-0.0384
9.4583,-7.9815,-0.0395
9.4625,-7.9667,-0.0405
9.4667,-7.9517,-0.0416
9.4708,-7.9365,-0.0427
9.4750,-7.9211,-0.0438
9.4792,-7.9055,-0.0449
9.4833,-7.8897,-0.0461
9.4875,-7.8737,-0.0473
9.4917,-7.8576,-0.0486
9.4958,-7.8412,-0.0498
9.5000,-7.8246,-0.0511
9.5042,-7.8078,-0.0525
9.5083,-7.7909,-0.0539
9.5125,-7.7737,-0.0553
9.5167,-7.7563,-0.0567
9.5208,-7.7386,-0.0582
9.5250,-7.7208,-0.0597
9.5292,-7.7027,-0.0613
9.5333,-7.6844,-0.0629
9.5375,-7.6659,-0.0645
9.5417,-7.6471,-0.0662
9.5458,-7.6281,-0.0679
9.5500,-7.6071,-0.0647
9.5542,-7.5966,-0.0653
9.5583,-7.5859,-0.0650
9.5625,-7.5772,-0.0649
9.5667,-7.5698,-0.0648
9.5708,-7.5636,-0.0647
9.5750,-7.5583,-0.0646
9.5792,-7.5539,-0.0645
9.5833,-7.5502,-0.0645
9.5875,-7.5470,-0.0645
9.5917,-7.5443,-0.0645
9.5958,-7.5419,-0.0646
9.6000,-7.5397,-0.0646
9.6042,-7.5377,-0.0647
9.6083,-7.5358,-0.0649
9.6125,-7.5338,-0.0650
9.6167,-7.5319,-0.0652
9.6208,-7.5298,-0.0655
9.6250,-7.5276,-0.0657
9.6292,-7.5253,-0.0660
9.6333,-7.5227,-0.0664
9.6375,-7.5198,-0.0667
9.6417,-7.5167,-0.0672
9.6458,-7.5133,-0.0676
9.6500,-7.5095,-0.0681
9.6542,-7.5054,-0.0686
9.6583,-7.5010,-0.0692
9.6625,-7.4962,-0.0698
9.6667,-7.4910,-0.0705
9.6708,-7.4853,-0.0712
9.6750,-7.4793,-0.0719
9.6792,-7.4729,-0.0727
9.6833,-7.4661,-0.0735
9.6875,-7.4589,-0.0743
9.6917,-7.4512,-0.0753
9.6958,-7.4431,-0.0762
9.7000,-7.4346,-0.0772
9.7042,-7.4256,-0.0783
9.7083,-7.4162,-0.0794
9.7125,-7.4063,-0.0805
9.7167,-7.3960,-0.0817
9.7208,-7.3853,-0.0829
9.7250,-7.3740,-0.0842
9.7292,-7.3624,-0.0856
9.7333,-7.3502,-0.0870
9.7375,-7.3376,-0.0884
9.7417,-7.3246,-0.0899
9.7458,-7.3094,-0.0874
9.7500,-7.3016,-0.0863
9.7542,-7.2965,-0.0861
9.7583,-7.2920,-0.0858
9.7625,-7.2886,-0.0855
9.7667,-7.2859,-0.0852
9.7708,-7.2839,-0.0850
9.7750,-7.2824,-0.0848
9.7792,-7.2814,-0.0847
9.7833,-7.2806,-0.0845
9.7875,-7.2801,-0.0845
9.7917,-7.2798,-0.0844
9.7958,-7.2794,-0.0845
9.8000,-7.2791,-0.0845
9.8042,-7.2788,-0.0846
9.8083,-7.2783,-0.0847
9.8125,-7.2777,-0.0849
9.8167,-7.2769,-0.0852
9.8208,-7.2758,-0.0854
9.8250,-7.2744,-0.0858
9.8292,-7.2728,-0.0861
9.8333,-7.2708,-0.0866
9.8375,-7.2684,-0.0870
9.8417,-7.2656,-0.0875
9.8458,-7.2625,-0.0881
9.8500,-7.2589,-0.0887
9.8542,-7.2549,-0.0894
9.8583,-7.2504,-0.0902
9.8625,-7.2454,-0.0909
9.8667,-7.2400,-0.0918
9.8708,-7.2341,-0.0927
9.8750,-7.2276,-0.0936
9.8792,-7.2207,-0.0946
9.8833,-7.2133,-0.0956
9.8875,-7.2053,-0.0968
9.8917,-7.1969,-0.0979
9.8958,-7.1879,-0.0992
9.9000,-7.1783,-0.1004
9.9042,-7.1683,-0.1018
9.9083,-7.1577,-0.1032
9.9125,-7.1465,-0.1047
9.9167,-7.1330,-0.1005
9.9208,-7.1299,-0.1009
9.9250,-7.1252,-0.1003
9.9292,-7.1222,-0.1001
9.9333,-7.1197,-0.0997
9.9375,-7.1179,-0.0995
9.9417,-7.1165,-0.0993
9.9458,-7.1156,-0.0991
9.9500,-7.1149,-0.0990
9.9542,-7.1145,-0.0989
9.9583,-7.1141,-0.0989
9.9625,-7.1138,-0.0990
9.9667,-7.1134,-0.0990
9.9708,-7.1130,-0.0992
9.9750,-7.1124,-0.0994
9.9792,-7.1116,-0.0996
9.9833,-7.1106,-0.0999
9.9875,-7.1093,-0.1003
9.9917,-7.1076,-0.1007
9.9958,-7.1056,-0.1011
10.0000,-7.1033,-0.1016
10.0042,-7.1005,-0.1022
10.0083,-7.0973,-0.1028
10.0125,-7.0936,-0.1035
10.0167,-7.0895,-0.1043
10.0208,-7.0849,-0.1051
10.0250,-7.0798,-0.1060
10.0292,-7.0742,-0.1069
10.0333,-7.0681,-0.1079
10.0375,-7.0614,-0.1090
10.0417,-7.0542,-0.1101
10.0458,-7.0464,-0.1113
10.0500,-7.0381,-0.1125
10.0542,-7.0292,-0.1139
10.0583,-7.0197,-0.1152
10.0625,-7.0077,-0.1108
10.0667,-7.0063,-0.1112
10.0708,-7.0031,-0.1105
10.0750,-7.0015,-0.1102
10.0792,-7.0003,-0.1098
10.0833,-6.9996,-0.1095
10.0875,-6.9994,-0.1093
10.0917,-6.9994,-0.1091
10.0958,-6.9996,-0.1089
10.1000,-6.9999,-0.1088
10.1042,-7.0003,-0.1088
10.1083,-7.0007,-0.1088
10.1125,-7.0009,-0.1089
10.1167,-7.0010,-0.1090
10.1208,-7.0009,-0.1092
10.1250,-7.0005,-0.1095
10.1292,-6.9999,-0.1098
10.1333,-6.9988,-0.1102
10.1375,-6.9975,-0.1106
10.1417,-6.9957,-0.1111
10.1458,-6.9935,-0.1116
10.1500,-6.9908,-0.1123
10.1542,-6.9877,-0.1129
10.1583,-6.9841,-0.1137
10.1625,-6.9800,-0.1145
10.1667,-6.9754,-0.1154
10.1708,-6.9702,-0.1163
10.1750,-6.9645,-0.1173
10.1792,-6.9582,-0.1184
10.1833,-6.9513,-0.1196
10.1875,-6.9439,-0.1208
10.1917,-6.9358,-0.1221
10.1958,-6.9271,-0.1235
10.2000,-6.9159,-0.1188
10.2042,-6.9154,-0.1191
10.2083,-6.9131,-0.1184
10.2125,-6.9121,-0.1181
10.2167,-6.9115,-0.1177
10.2208,-6.9114,-0.1175
10.2250,-6.9115,-0.1172
10.2292,-6.9119,-0.1170
10.2333,-6.9124,-0.1169
10.2375,-6.9130,-0.1168
10.2417,-6.9136,-0.1168
10.2458,-6.9140,-0.1169
10.2500,-6.9143,-0.1170
10.2542,-6.9144,-0.1172
10.2583,-6.9143,-0.1174
10.2625,-6.9139,-0.1177
10.2667,-6.9131,-0.1181
10.2708,-6.9120,-0.1185
10.2750,-6.9104,-0.1190
10.2792,-6.9083,-0.1196
10.2833,-6.9058,-0.1202
10.2875,-6.9029,-0.1209
10.2917,-6.8994,-0.1217
10.2958,-6.8954,-0.1225
10.3000,-6.8909,-0.1234
10.3042,-6.8858,-0.1244
10.3083,-6.8801,-0.1254
10.3125,-6.8738,-0.1266
10.3167,-6.8670,-0.1278
10.3208,-6.8595,-0.1290
10.3250,-6.8514,-0.1304
10.3292,-6.8407,-0.1255
10.3333,-6.8408,-0.1258
10.3375,-6.8391,-0.1252
10.3417,-6.8387,-0.1248
10.3458,-6.8385,-0.1245
10.3500,-6.8388,-0.1242
10.3542,-6.8393,-0.1239
10.3583,-6.8399,-0.1238
10.3625,-6.8407,-0.1236
10.3667,-6.8414,-0.1236
10.3708,-6.8421,-0.1236
10.3750,-6.8426,-0.1237
10.3792,-6.8429,-0.1238
10.3833,-6.8430,-0.1240
10.3875,-6.8429,-0.1243
10.3917,-6.8423,-0.1246
10.3958,-6.8415,-0.1251
10.4000,-6.8402,-0.1255
10.4042,-6.8384,-0.1261
10.4083,-6.8362,-0.1267
10.4125,-6.8334,-0.1274
10.4167,-6.8302,-0.1282
10.4208,-6.8264,-0.1290
10.4250,-6.8221,-0.1300
10.4292,-6.8172,-0.1309
10.4333,-6.8117,-0.1320
10.4375,-6.8056,-0.1331
10.4417,-6.7989,-0.1344
10.4458,-6.7916,-0.1357
10.4500,-6.7816,-0.1306
10.4542,-6.7824,-0.1309
10.4583,-6.7815,-0.1302
10.4625,-6.7817,-0.1298
10.4667,-6.7822,-0.1294
10.4708,-6.7831,-0.1291
10.4750,-6.7842,-0.1288
10.4792,-6.7854,-0.1286
10.4833,-6.7866,-0.1285
10.4875,-6.7878,-0.1284
10.4917,-6.7890,-0.1284
10.4958,-6.7899,-0.1284
10.5000,-6.7907,-0.1286
10.5042,-6.7912,-0.1288
10.5083,-6.7914,-0.1290
10.5125,-6.7912,-0.1293
10.5167,-6.7906,-0.1298
10.5208,-6.7896,-0.1302
10.5250,-6.7881,-0.1308
10.5292,-6.7861,-0.1314
10.5333,-6.7836,-0.1321
10.5375,-6.7805,-0.1329
10.5417,-6.7770,-0.1337
10.5458,-6.7728,-0.1347
10.5500,-6.7681,-0.1357
10.5542,-6.7628,-0.1367
10.5583,-6.7568,-0.1379
10.5625,-6.7502,-0.1391
10.5667,-6.7410,-0.1341
10.5708,-6.7423,-0.1344
10.5750,-6.7420,-0.1336
10.5792,-6.7427,-0.1332
10.5833,-6.7437,-0.1327
10.5875,-6.7451,-0.1323
10.5917,-6.7467,-0.1320
10.5958,-6.7485,-0.1317
10.6000,-6.7502,-0.1316
10.6042,-6.7520,-0.1314
10.6083,-6.7536,-0.1314
10.6125,-6.7551,-0.1314
10.6167,-6.7564,-0.1315
10.6208,-6.7574,-0.1316
10.6250,-6.7580,-0.1319
10.6292,-6.7583,-0.1322
10.6333,-6.7582,-0.1325
10.6375,-6.7577,-0.1330
10.6417,-6.7566,-0.1335
10.6458,-6.7551,-0.1341
10.6500,-6.7531,-0.1348
10.6542,-6.7505,-0.1355
10.6583,-6.7473,-0.1363
10.6625,-6.7436,-0.1372
10.6667,-6.7393,-0.1382
10.6708,-6.7343,-0.1393
10.6750,-6.7287,-0.1404
10.6792,-6.7224,-0.1416
10.6833,-6.7155,-0.1429
10.6875,-6.7059,-0.1377
10.6917,-6.7072,-0.1380
10.6958,-6.7068,-0.1374
10.7000,-6.7074,-0.1370
10.7042,-6.7082,-0.1366
10.7083,-6.7092,-0.1363
10.7125,-6.7104,-0.1361
10.7167,-6.7116,-0.1360
10.7208,-6.7128,-0.1359
10.7250,-6.7139,-0.1358
10.7292,-6.7149,-0.1359
10.7333,-6.7156,-0.1360
10.7375,-6.7161,-0.1362
10.7417,-6.7162,-0.1365
10.7458,-6.7160,-0.1368
10.7500,-6.7154,-0.1372
10.7542,-6.7144,-0.1377
10.7583,-6.7129,-0.1383
10.7625,-6.7109,-0.1389
10.7667,-6.7084,-0.1397
10.7708,-6.7053,-0.1405
10.7750,-6.7016,-0.1414
10.7792,-6.6974,-0.1424
10.7833,-6.6925,-0.1434
10.7875,-6.6870,-0.1445
10.7917,-6.6809,-0.1457
10.7958,-6.6720,-0.1405
10.8000,-6.6739,-0.1407
10.8042,-6.6742,-0.1400
10.8083,-6.6755,-0.1395
10.8125,-6.6770,-0.1390
10.8167,-6.6788,-0.1386
10.8208,-6.6808,-0.1384
10.8250,-6.6828,-0.1381
10.8292,-6.6847,-0.1379
10.8333,-6.6866,-0.1378
10.8375,-6.6883,-0.1378
10.8417,-6.6899,-0.1378
10.8458,-6.6912,-0.1379
10.8500,-6.6922,-0.1381
10.8542,-6.6928,-0.1383
10.8583,-6.6931,-0.1387
10.8625,-6.6929,-0.1391
10.8667,-6.6923,-0.1396
10.8708,-6.6912,-0.1401
10.8750,-6.6895,-0.1408
10.8792,-6.6873,-0.1415
10.8833,-6.6845,-0.1423
10.8875,-6.6812,-0.1432
10.8917,-6.6772,-0.1441
10.8958,-6.6726,-0.1452
10.9000,-6.6674,-0.1463
10.9042,-6.6615,-0.1475
10.9083,-6.6529,-0.1423
10.9125,-6.6549,-0.1425
10.9167,-6.6554,-0.1418
10.9208,-6.6568,-0.1413
10.9250,-6.6584,-0.1409
10.9292,-6.6602,-0.1405
10.9333,-6.6622,-0.1402
10.9375,-6.6642,-0.1400
10.9417,-6.6662,-0.1398
10.9458,-6.6681,-0.1397
10.9500,-6.6698,-0.1397
10.9542,-6.6713,-0.1397
10.9583,-6.6726,-0.1398
10.9625,-6.6736,-0.1400
10.9667,-6.6741,-0.1403
10.9708,-6.6743,-0.1407
10.9750,-6.6740,-0.1411
10.9792,-6.6733,-0.1416
10.9833,-6.6720,-0.1422
10.9875,-6.6703,-0.1428
10.9917,-6.6679,-0.1436
10.9958,-6.6650,-0.1444
11.0000,-6.6615,-0.1453
11.0042,-6.6573,-0.1463
11.0083,-6.6525,-0.1474
11.0125,-6.6471,-0.1486
11.0167,-6.6410,-0.1498
11.0208,-6.6321,-0.1444
11.0250,-6.6342,-0.1447
11.0292,-6.6347,-0.1440
11.0333,-6.6360,-0.1436
11.0375,-6.6375,-0.1432
11.0417,-6.6392,-0.1428
11.0458,-6.6409,-0.1426
11.0500,-6.6427,-0.1424
11.0542,-6.6444,-0.1423
11.0583,-6.6460,-0.1423
11.0625,-6.6474,-0.1423
11.0667,-6.6486,-0.1424
11.0708,-6.6494,-0.1426
11.0750,-6.6499,-0.1428
11.0792,-6.6500,-0.1432
11.0833,-6.6497,-0.1436
11.0875,-6.6489,-0.1441
11.0917,-6.6477,-0.1447
11.0958,-6.6459,-0.1454
11.1000,-6.6435,-0.1461
11.1042,-6.6405,-0.1469
11.1083,-6.6370,-0.1479
11.1125,-6.6328,-0.1488
11.1167,-6.6280,-0.1499
11.1208,-6.6226,-0.1511
11.1250,-6.6165,-0.1523
11.1292,-6.6076,-0.1468
11.1333,-6.6098,-0.1471
11.1375,-6.6103,-0.1464
11.1417,-6.6117,-0.1460
11.1458,-6.6132,-0.1456
11.1500,-6.6149,-0.1453
11.1542,-6.6167,-0.1450
11.1583,-6.6185,-0.1449
11.1625,-6.6202,-0.1447
11.1667,-6.6218,-0.1447
11.1708,-6.6232,-0.1448
11.1750,-6.6243,-0.1449
11.1792,-6.6251,-0.1451
11.1833,-6.6256,-0.1454
11.1875,-6.6257,-0.1457
11.1917,-6.6253,-0.1461
11.1958,-6.6244,-0.1467
11.2000,-6.6231,-0.1473
11.2042,-6.6212,-0.1480
11.2083,-6.6187,-0.1487
11.2125,-6.6156,-0.1496
11.2167,-6.6119,-0.1505
11.2208,-6.6077,-0.1515
11.2250,-6.6027,-0.1526
11.2292,-6.5972,-0.1538
11.2333,-6.5889,-0.1484
11.2375,-6.5913,-0.1486
11.2417,-6.5923,-0.1479
11.2458,-6.5941,-0.1474
11.2500,-6.5961,-0.1469
11.2542,-6.5982,-0.1465
11.2583,-6.6005,-0.1463
11.2625,-6.6027,-0.1460
11.2667,-6.6048,-0.1459
11.2708,-6.6069,-0.1458
11.2750,-6.6087,-0.1458
11.2792,-6.6103,-0.1458
11.2833,-6.6117,-0.1460
11.2875,-6.6126,-0.1462
11.2917,-6.6132,-0.1465
11.2958,-6.6134,-0.1469
11.3000,-6.6131,-0.1473
11.3042,-6.6122,-0.1479
11.3083,-6.6109,-0.1485
11.3125,-6.6090,-0.1492
11.3167,-6.6065,-0.1500
11.3208,-6.6035,-0.1509
11.3250,-6.5998,-0.1518
11.3292,-6.5954,-0.1529
11.3333,-6.5904,-0.1540
11.3375,-6.5848,-0.1553
11.3417,-6.5762,-0.1496
11.3458,-6.5788,-0.1499
11.3500,-6.5798,-0.1492
11.3542,-6.5815,-0.1488
11.3583,-6.5834,-0.1484
11.3625,-6.5854,-0.1481
11.3667,-6.5875,-0.1478
11.3708,-6.5895,-0.1476
11.3750,-6.5914,-0.1475
11.3792,-6.5932,-0.1475
11.3833,-6.5948,-0.1475
11.3875,-6.5960,-0.1476
11.3917,-6.5970,-0.1478
11.3958,-6.5976,-0.1481
11.4000,-6.5977,-0.1485
11.4042,-6.5974,-0.1489
11.4083,-6.5967,-0.1495
11.4125,-6.5954,-0.1501
11.4167,-6.5935,-0.1508
11.4208,-6.5911,-0.1516
11.4250,-6.5880,-0.1524
11.4292,-6.5844,-0.1534
11.4333,-6.5801,-0.1544
11.4375,-6.5751,-0.1555
11.4417,-6.5696,-0.1567
11.4458,-6.5611,-0.1511
11.4500,-6.5637,-0.1514
11.4542,-6.5648,-0.1507
11.4583,-6.5666,-0.1502
11.4625,-6.5686,-0.1498
11.4667,-6.5707,-0.1495
11.4708,-6.5729,-0.1492
11.4750,-6.5750,-0.1490
11.4792,-6.5771,-0.1489
11.4833,-6.5790,-0.1488
11.4875,-6.5806,-0.1489
11.4917,-6.5820,-0.1490
11.4958,-6.5831,-0.1492
11.5000,-6.5838,-0.1494
11.5042,-6.5840,-0.1498
11.5083,-6.5839,-0.1502
11.5125,-6.5831,-0.1508
11.5167,-6.5819,-0.1514
11.5208,-6.5801,-0.1521
11.5250,-6.5777,-0.1528
11.5292,-6.5748,-0.1537
11.5333,-6.5712,-0.1546
11.5375,-6.5671,-0.1557
11.5417,-6.5622,-0.1568
11.5458,-6.5568,-0.1580
11.5500,-6.5484,-0.1524
11.5542,-6.5511,-0.1526
11.5583,-6.5523,-0.1519
11.5625,-6.5541,-0.1515
11.5667,-6.5561,-0.1510
11.5708,-6.5583,-0.1507
11.5750,-6.5605,-0.1504
11.5792,-6.5627,-0.1502
11.5833,-6.5647,-0.1501
11.5875,-6.5666,-0.1501
11.5917,-6.5683,-0.1501
11.5958,-6.5697,-0.1503
11.6000,-6.5707,-0.1505
11.6042,-6.5714,-0.1507
11.6083,-6.5716,-0.1511
11.6125,-6.5714,-0.1516
11.6167,-6.5706,-0.1521
11.6208,-6.5693,-0.1527
11.6250,-6.5675,-0.1534
11.6292,-6.5650,-0.1542
11.6333,-6.5620,-0.1551
11.6375,-6.5584,-0.1560
11.6417,-6.5541,-0.1571
11.6458,-6.5492,-0.1582
11.6500,-6.5416,-0.1527
11.6542,-6.5445,-0.1529
11.6583,-6.5461,-0.1521
11.6625,-6.5483,-0.1516
11.6667,-6.5508,-0.1511
11.6708,-6.5535,-0.1507
11.6750,-6.5562,-0.1503
11.6792,-6.5590,-0.1500
11.6833,-6.5616,-0.1498
11.6875,-6.5642,-0.1497
11.6917,-6.5665,-0.1497
11.6958,-6.5685,-0.1497
11.7000,-6.5703,-0.1498
11.7042,-6.5716,-0.1500
11.7083,-6.5726,-0.1503
11.7125,-6.5731,-0.1507
11.7167,-6.5731,-0.1511
11.7208,-6.5725,-0.1517
11.7250,-6.5715,-0.1523
11.7292,-6.5699,-0.1530
11.7333,-6.5677,-0.1538
11.7375,-6.5648,-0.1547
11.7417,-6.5613,-0.1556
11.7458,-6.5572,-0.1567
11.7500,-6.5524,-0.1578
11.7542,-6.5469,-0.1590
11.7583,-6.5385,-0.1533
11.7625,-6.5412,-0.1537
11.7667,-6.5424,-0.1530
11.7708,-6.5442,-0.1526
11.7750,-6.5462,-0.1522
11.7792,-6.5483,-0.1519
11.7833,-6.5504,-0.1516
11.7875,-6.5524,-0.1515
11.7917,-6.5543,-0.1514
11.7958,-6.5560,-0.1514
11.8000,-6.5574,-0.1515
11.8042,-6.5586,-0.1516
11.8083,-6.5594,-0.1518
11.8125,-6.5598,-0.1522
11.8167,-6.5598,-0.1526
11.8208,-6.5593,-0.1531
11.8250,-6.5583,-0.1536
11.8292,-6.5568,-0.1543
11.8333,-6.5547,-0.1550
11.8375,-6.5520,-0.1559
11.8417,-6.5487,-0.1568
11.8458,-6.5447,-0.1578
11.8500,-6.5400,-0.1589
11.8542,-6.5348,-0.1601
11.8583,-6.5267,-0.1544
11.8625,-6.5295,-0.1547
11.8667,-6.5310,-0.1539
11.8708,-6.5331,-0.1534
11.8750,-6.5353,-0.1530
11.8792,-6.5377,-0.1526
11.8833,-6.5401,-0.1523
11.8875,-6.5425,-0.1521
11.8917,-6.5448,-0.1520
11.8958,-6.5469,-0.1520
11.9000,-6.5487,-0.1520
11.9042,-6.5503,-0.1521
11.9083,-6.5515,-0.1523
11.9125,-6.5523,-0.1525
11.9167,-6.5527,-0.1529
11.9208,-6.5526,-0.1534
11.9250,-6.5520,-0.1539
11.9292,-6.5508,-0.1545
11.9333,-6.5491,-0.1552
11.9375,-6.5469,-0.1560
11.9417,-6.5440,-0.1568
11.9458,-6.5405,-0.1578
11.9500,-6.5364,-0.1588
11.9542,-6.5316,-0.1600
11.9583,-6.5261,-0.1612
11.9625,-6.5177,-0.1554
11.9667,-6.5206,-0.1557
11.9708,-6.5219,-0.1550
11.9750,-6.5238,-0.1546
11.9792,-6.5259,-0.1542
11.9833,-6.5280,-0.1539
11.9875,-6.5302,-0.1537
11.9917,-6.5322,-0.1535
11.9958,-6.5342,-0.1534
12.0000,-6.5359,-0.1534
12.0042,-6.5374,-0.1535
12.0083,-6.5386,-0.1537
12.0125,-6.5394,-0.1539
12.0167,-6.5398,-0.1542
12.0208,-6.5397,-0.1547
12.0250,-6.5392,-0.1552
12.0292,-6.5382,-0.1557
12.0333,-6.5366,-0.1564
12.0375,-6.5345,-0.1572
12.0417,-6.5318,-0.1580
12.0458,-6.5284,-0.1590
12.0500,-6.5244,-0.1600
12.0542,-6.5197,-0.1611
12.0583,-6.5143,-0.1623
12.0625,-6.5061,-0.1565
12.0667,-6.5089,-0.1568
12.0708,-6.5104,-0.1561
12.0750,-6.5124,-0.1557
12.0792,-6.5146,-0.1553
12.0833,-6.5168,-0.1549
12.0875,-6.5191,-0.1547
12.0917,-6.5214,-0.1545
12.0958,-6.5235,-0.1544
12.1000,-6.5254,-0.1544
12.1042,-6.5271,-0.1544
12.1083,-6.5284,-0.1546
12.1125,-6.5294,-0.1548
12.1167,-6.5300,-0.1551
12.1208,-6.5302,-0.1555
12.1250,-6.5298,-0.1560
12.1292,-6.5290,-0.1565
12.1333,-6.5276,-0.1572
12.1375,-6.5256,-0.1579
12.1417,-6.5230,-0.1588
12.1458,-6.5198,-0.1597
12.1500,-6.5159,-0.1607
12.1542,-6.5115,-0.1618
12.1583,-6.5063,-0.1630
12.1625,-6.4983,-0.1572
12.1667,-6.5014,-0.1574
12.1708,-6.5030,-0.1567
12.1750,-6.5053,-0.1562
12.1792,-6.5076,-0.1558
12.1833,-6.5101,-0.1555
12.1875,-6.5126,-0.1552
12.1917,-6.5150,-0.1550
12.1958,-6.5172,-0.1549
12.2000,-6.5193,-0.1549
12.2042,-6.5211,-0.1549
12.2083,-6.5226,-0.1550
12.2125,-6.5237,-0.1552
12.2167,-6.5245,-0.1555
12.2208,-6.5247,-0.1559
12.2250,-6.5245,-0.1564
12.2292,-6.5238,-0.1570
12.2333,-6.5226,-0.1576
12.2375,-6.5207,-0.1584
12.2417,-6.5182,-0.1592
12.2458,-6.5151,-0.1601
12.2500,-6.5113,-0.1611
12.2542,-6.5070,-0.1621
12.2583,-6.5019,-0.1633
12.2625,-6.4940,-0.1575
12.2667,-6.4971,-0.1578
12.2708,-6.4989,-0.1571
12.2750,-6.5012,-0.1566
12.2792,-6.5036,-0.1562
12.2833,-6.5061,-0.1558
12.2875,-6.5087,-0.1555
12.2917,-6.5111,-0.1553
12.2958,-6.5135,-0.1552
12.3000,-6.5156,-0.1552
12.3042,-6.5175,-0.1552
12.3083,-6.5191,-0.1553
12.3125,-6.5203,-0.1555
12.3167,-6.5211,-0.1558
12.3208,-6.5214,-0.1562
12.3250,-6.5213,-0.1567
12.3292,-6.5206,-0.1572
12.3333,-6.5193,-0.1579
12.3375,-6.5175,-0.1586
12.3417,-6.5151,-0.1594
12.3458,-6.5121,-0.1603
12.3500,-6.5084,-0.1613
12.3542,-6.5042,-0.1624
12.3583,-6.4992,-0.1635
12.3625,-6.4914,-0.1578
12.3667,-6.4945,-0.1580
12.3708,-6.4963,-0.1573
12.3750,-6.4986,-0.1568
12.3792,-6.5011,-0.1564
12.3833,-6.5037,-0.1560
12.3875,-6.5063,-0.1557
12.3917,-6.5088,-0.1555
12.3958,-6.5112,-0.1554
12.4000,-6.5133,-0.1554
12.4042,-6.5153,-0.1554
12.4083,-6.5169,-0.1555
12.4125,-6.5181,-0.1557
12.4167,-6.5190,-0.1560
12.4208,-6.5193,-0.1564
12.4250,-6.5191,-0.1569
12.4292,-6.5185,-0.1574
12.4333,-6.5173,-0.1580
12.4375,-6.5155,-0.1588
12.4417,-6.5131,-0.1596
12.4458,-6.5102,-0.1605
12.4500,-6.5066,-0.1615
12.4542,-6.5023,-0.1625
12.4583,-6.4974,-0.1637
12.4625,-6.4896,-0.1579
12.4667,-6.4928,-0.1581
12.4708,-6.4947,-0.1574
12.4750,-6.4971,-0.1569
12.4792,-6.4996,-0.1565
12.4833,-6.5022,-0.1561
12.4875,-6.5049,-0.1559
12.4917,-6.5074,-0.1556
12.4958,-6.5098,-0.1555
12.5000,-6.5120,-0.1555
12.5042,-6.5139,-0.1555
12.5083,-6.5156,-0.1556
12.5125,-6.5168,-0.1558
12.5167,-6.5177,-0.1561
12.5208,-6.5181,-0.1565
12.5250,-6.5180,-0.1570
12.5292,-6.5173,-0.1575
12.5333,-6.5161,-0.1582
12.5375,-6.5143,-0.1589
12.5417,-6.5119,-0.1597
12.5458,-6.5089,-0.1606
12.5500,-6.5053,-0.1616
12.5542,-6.5010,-0.1627
12.5583,-6.4961,-0.1638
12.5625,-6.4883,-0.1581
12.5667,-6.4914,-0.1583
12.5708,-6.4932,-0.1576
12.5750,-6.4955,-0.1571
12.5792,-6.4980,-0.1567
12.5833,-6.5006,-0.1563
12.5875,-6.5032,-0.1560
12.5917,-6.5057,-0.1558
12.5958,-6.5081,-0.1557
12.6000,-6.5103,-0.1557
12.6042,-6.5122,-0.1557
12.6083,-6.5138,-0.1558
12.6125,-6.5151,-0.1560
12.6167,-6.5159,-0.1564
12.6208,-6.5162,-0.1567
12.6250,-6.5160,-0.1572
12.6292,-6.5154,-0.1577
12.6333,-6.5142,-0.1584
12.6375,-6.5124,-0.1591
12.6417,-6.5100,-0.1599
12.6458,-6.5071,-0.1608
12.6500,-6.5035,-0.1618
12.6542,-6.4992,-0.1629
12.6583,-6.4943,-0.1640
12.6625,-6.4865,-0.1582
12.6667,-6.4897,-0.1585
12.6708,-6.4915,-0.1578
12.6750,-6.4939,-0.1573
12.6792,-6.4964,-0.1568
12.6833,-6.4990,-0.1565
12.6875,-6.5016,-0.1562
12.6917,-6.5042,-0.1560
12.6958,-6.5065,-0.1559
12.7000,-6.5087,-0.1559
12.7042,-6.5106,-0.1559
12.7083,-6.5122,-0.1560
12.7125,-6.5134,-0.1562
12.7167,-6.5142,-0.1565
12.7208,-6.5146,-0.1569
12.7250,-6.5144,-0.1574
12.7292,-6.5137,-0.1580
12.7333,-6.5125,-0.1586
12.7375,-6.5106,-0.1593
12.7417,-6.5082,-0.1602
12.7458,-6.5051,-0.1611
12.7500,-6.5015,-0.1621
12.7542,-6.4971,-0.1631
12.7583,-6.4921,-0.1643
12.7625,-6.4842,-0.1585
12.7667,-6.4874,-0.1588
12.7708,-6.4892,-0.1581
12.7750,-6.4915,-0.1576
12.7792,-6.4939,-0.1572
12.7833,-6.4965,-0.1568
12.7875,-6.4990,-0.1565
12.7917,-6.5015,-0.1564
12.7958,-6.5038,-0.1562
12.8000,-6.5059,-0.1562
12.8042,-6.5077,-0.1563
12.8083,-6.5093,-0.1564
12.8125,-6.5104,-0.1566
12.8167,-6.5112,-0.1569
12.8208,-6.5114,-0.1573
12.8250,-6.5112,-0.1578
12.8292,-6.5105,-0.1584
12.8333,-6.5092,-0.1590
12.8375,-6.5072,-0.1598
12.8417,-6.5047,-0.1606
12.8458,-6.5016,-0.1615
12.8500,-6.4978,-0.1625
12.8542,-6.4934,-0.1636
12.8583,-6.4884,-0.1648
12.8625,-6.4804,-0.1590
12.8667,-6.4835,-0.1593
12.8708,-6.4852,-0.1585
12.8750,-6.4875,-0.1581
12.8792,-6.4899,-0.1577
12.8833,-6.4923,-0.1573
12.8875,-6.4948,-0.1571
12.8917,-6.4972,-0.1569
12.8958,-6.4994,-0.1568
12.9000,-6.5014,-0.1568
12.9042,-6.5031,-0.1568
12.9083,-6.5046,-0.1570
12.9125,-6.5056,-0.1572
12.9167,-6.5063,-0.1575
12.9208,-6.5064,-0.1579
12.9250,-6.5061,-0.1584
12.9292,-6.5053,-0.1590
12.9333,-6.5038,-0.1597
12.9375,-6.5018,-0.1605
12.9417,-6.4992,-0.1613
12.9458,-6.4959,-0.1622
12.9500,-6.4920,-0.1633
12.9542,-6.4875,-0.1644
12.9583,-6.4802,-0.1587
12.9625,-6.4836,-0.1589
12.9667,-6.4857,-0.1581
12.9708,-6.4883,-0.1576
12.9750,-6.4911,-0.1570
12.9792,-6.4940,-0.1566
12.9833,-6.4970,-0.1563
12.9875,-6.4999,-0.1560
12.9917,-6.5028,-0.1558
12.9958,-6.5054,-0.1557
13.0000,-6.5078,-0.1557
13.0042,-6.5099,-0.1557
13.0083,-6.5117,-0.1559
13.0125,-6.5131,-0.1561
13.0167,-6.5140,-0.1564
13.0208,-6.5145,-0.1568
13.0250,-6.5144,-0.1573
13.0292,-6.5138,-0.1579
13.0333,-6.5126,-0.1585
13.0375,-6.5109,-0.1593
13.0417,-6.5085,-0.1601
13.0458,-6.5055,-0.1610
13.0500,-6.5018,-0.1621
13.0542,-6.4975,-0.1632
13.0583,-6.4924,-0.1644
13.0625,-6.4844,-0.1585
13.0667,-6.4876,-0.1588
13.0708,-6.4894,-0.1581
13.0750,-6.4916,-0.1577
13.0792,-6.4940,-0.1573
13.0833,-6.4964,-0.1569
13.0875,-6.4989,-0.1567
13.0917,-6.5012,-0.1565
13.0958,-6.5033,-0.1565
13.1000,-6.5053,-0.1565
13.1042,-6.5069,-0.1565
13.1083,-6.5082,-0.1567
13.1125,-6.5092,-0.1569
13.1167,-6.5097,-0.1573
13.1208,-6.5098,-0.1577
13.1250,-6.5093,-0.1582
13.1292,-6.5084,-0.1588
13.1333,-6.5069,-0.1595
13.1375,-6.5048,-0.1602
13.1417,-6.5021,-0.1611
13.1458,-6.4987,-0.1621
13.1500,-6.4947,-0.1631
13.1542,-6.4900,-0.1643
13.1583,-6.4825,-0.1586
13.1625,-6.4858,-0.1588
13.1667,-6.4877,-0.1580
13.1708,-6.4901,-0.1575
13.1750,-6.4928,-0.1570
13.1792,-6.4956,-0.1566
13.1833,-6.4984,-0.1562
13.1875,-6.5012,-0.1560
13.1917,-6.5039,-0.1558
13.1958,-6.5064,-0.1557
13.2000,-6.5087,-0.1557
13.2042,-6.5107,-0.1558
13.2083,-6.5123,-0.1559
13.2125,-6.5135,-0.1562
13.2167,-6.5143,-0.1565
13.2208,-6.5147,-0.1569
13.2250,-6.5145,-0.1574
13.2292,-6.5137,-0.1580
13.2333,-6.5124,-0.1587
13.2375,-6.5105,-0.1594
13.2417,-6.5080,-0.1603
13.2458,-6.5049,-0.1612
13.2500,-6.5011,-0.1623
13.2542,-6.4966,-0.1634
13.2583,-6.4893,-0.1577
13.2625,-6.4928,-0.1579
13.2667,-6.4949,-0.1571
13.2708,-6.4976,-0.1565
13.2750,-6.5005,-0.1561
13.2792,-6.5035,-0.1556
13.2833,-6.5065,-0.1553
13.2875,-6.5093,-0.1551
13.2917,-6.5120,-0.1549
13.2958,-6.5146,-0.1548
13.3000,-6.5169,-0.1548
13.3042,-6.5189,-0.1549
13.3083,-6.5205,-0.1550
13.3125,-6.5218,-0.1553
13.3167,-6.5227,-0.1556
13.3208,-6.5230,-0.1560
13.3250,-6.5229,-0.1565
13.3292,-6.5222,-0.1571
13.3333,-6.5210,-0.1577
13.3375,-6.5191,-0.1585
13.3417,-6.5167,-0.1593
13.3458,-6.5136,-0.1602
13.3500,-6.5098,-0.1613
13.3542,-6.5054,-0.1624
13.3583,-6.5003,-0.1636
13.3625,-6.4922,-0.1578
13.3667,-6.4953,-0.1581
13.3708,-6.4969,-0.1574
13.3750,-6.4991,-0.1569
13.3792,-6.5014,-0.1565
13.3833,-6.5038,-0.1562
13.3875,-6.5062,-0.1560
13.3917,-6.5085,-0.1558
13.3958,-6.5106,-0.1557
13.4000,-6.5125,-0.1557
13.4042,-6.5141,-0.1558
13.4083,-6.5154,-0.1559
13.4125,-6.5164,-0.1562
13.4167,-6.5169,-0.1565
13.4208,-6.5170,-0.1569
13.4250,-6.5166,-0.1574
13.4292,-6.5156,-0.1580
13.4333,-6.5141,-0.1587
13.4375,-6.5120,-0.1595
13.4417,-6.5093,-0.1603
13.4458,-6.5059,-0.1613
13.4500,-6.5019,-0.1623
13.4542,-6.4973,-0.1634
13.4583,-6.4899,-0.1577
13.4625,-6.4932,-0.1579
13.4667,-6.4952,-0.1572
13.4708,-6.4977,-0.1567
13.4750,-6.5004,-0.1561
13.4792,-6.5033,-0.1557
13.4833,-6.5062,-0.1554
13.4875,-6.5090,-0.1551
13.4917,-6.5118,-0.1549
13.4958,-6.5144,-0.1548
13.5000,-6.5167,-0.1548
13.5042,-6.5188,-0.1549
13.5083,-6.5205,-0.1550
13.5125,-6.5219,-0.1552
13.5167,-6.5228,-0.1555
13.5208,-6.5232,-0.1559
13.5250,-6.5231,-0.1564
13.5292,-6.5225,-0.1570
13.5333,-6.5213,-0.1576
13.5375,-6.5195,-0.1584
13.5417,-6.5171,-0.1592
13.5458,-6.5141,-0.1601
13.5500,-6.5104,-0.1611
13.5542,-6.5061,-0.1623
13.5583,-6.5010,-0.1635
13.5625,-6.4931,-0.1576
13.5667,-6.4962,-0.1579
13.5708,-6.4979,-0.1572
13.5750,-6.5002,-0.1568
13.5792,-6.5026,-0.1564
13.5833,-6.5050,-0.1560
13.5875,-6.5075,-0.1558
13.5917,-6.5098,-0.1556
13.5958,-6.5120,-0.1555
13.6000,-6.5140,-0.1555
13.6042,-6.5157,-0.1556
13.6083,-6.5171,-0.1557
13.6125,-6.5181,-0.1559
13.6167,-6.5187,-0.1562
13.6208,-6.5189,-0.1567
13.6250,-6.5186,-0.1571
13.6292,-6.5177,-0.1577
13.6333,-6.5163,-0.1584
13.6375,-6.5143,-0.1592
13.6417,-6.5116,-0.1600
13.6458,-6.5084,-0.1609
13.6500,-6.5044,-0.1620
13.6542,-6.4999,-0.1631
13.6583,-6.4947,-0.1643
13.6625,-6.4865,-0.1584
13.6667,-6.4895,-0.1587
13.6708,-6.4911,-0.1580
13.6750,-6.4933,-0.1576
13.6792,-6.4956,-0.1572
13.6833,-6.4979,-0.1569
13.6875,-6.5003,-0.1566
13.6917,-6.5025,-0.1564
13.6958,-6.5047,-0.1563
13.7000,-6.5066,-0.1563
13.7042,-6.5082,-0.1564
13.7083,-6.5095,-0.1566
13.7125,-6.5105,-0.1568
13.7167,-6.5110,-0.1571
13.7208,-6.5111,-0.1575
13.7250,-6.5107,-0.1580
13.7292,-6.5098,-0.1586
13.7333,-6.5083,-0.1593
13.7375,-6.5062,-0.1601
13.7417,-6.5035,-0.1610
13.7458,-6.5001,-0.1619
13.7500,-6.4961,-0.1629
13.7542,-6.4915,-0.1640
13.7583,-6.4841,-0.1583
13.7625,-6.4874,-0.1585
13.7667,-6.4895,-0.1577
13.7708,-6.4922,-0.1572
13.7750,-6.4949,-0.1567
13.7792,-6.4978,-0.1563
13.7833,-6.5007,-0.1560
13.7875,-6.5035,-0.1557
13.7917,-6.5063,-0.1555
13.7958,-6.5088,-0.1554
13.8000,-6.5112,-0.1554
13.8042,-6.5132,-0.1555
13.8083,-6.5149,-0.1556
13.8125,-6.5162,-0.1558
13.8167,-6.5171,-0.1561
13.8208,-6.5175,-0.1565
13.8250,-6.5174,-0.1570
13.8292,-6.5167,-0.1576
13.8333,-6.5155,-0.1583
13.8375,-6.5137,-0.1590
13.8417,-6.5113,-0.1598
13.8458,-6.5082,-0.1608
13.8500,-6.5045,-0.1618
13.8542,-6.5001,-0.1629
13.8583,-6.4951,-0.1641
13.8625,-6.4870,-0.1582
13.8667,-6.4902,-0.1586
13.8708,-6.4919,-0.1579
13.8750,-6.4942,-0.1574
13.8792,-6.4965,-0.1570
13.8833,-6.4989,-0.1567
13.8875,-6.5013,-0.1565
13.8917,-6.5036,-0.1563
13.8958,-6.5057,-0.1562
13.9000,-6.5077,-0.1562
13.9042,-6.5093,-0.1563
13.9083,-6.5106,-0.1565
13.9125,-6.5115,-0.1567
13.9167,-6.5120,-0.1570
13.9208,-6.5121,-0.1575
13.9250,-6.5117,-0.1580
13.9292,-6.5107,-0.1585
13.9333,-6.5092,-0.1592
13.9375,-6.5071,-0.1600
13.9417,-6.5044,-0.1609
13.9458,-6.5010,-0.1618
13.9500,-6.4969,-0.1629
13.9542,-6.4922,-0.1640
13.9583,-6.4848,-0.1584
13.9625,-6.4880,-0.1586
13.9667,-6.4898,-0.1578
13.9708,-6.4923,-0.1573
13.9750,-6.4950,-0.1568
13.9792,-6.4978,-0.1563
13.9833,-6.5006,-0.1560
13.9875,-6.5034,-0.1557
13.9917,-6.5062,-0.1556
13.9958,-6.5087,-0.1555
14.0000,-6.5110,-0.1555
14.0042,-6.5130,-0.1555
14.0083,-6.5146,-0.1557
14.0125,-6.5159,-0.1559
14.0167,-6.5167,-0.1562
14.0208,-6.5170,-0.1566
14.0250,-6.5169,-0.1571
14.0292,-6.5162,-0.1577
14.0333,-6.5149,-0.1584
14.0375,-6.5130,-0.1591
14.0417,-6.5105,-0.1600
14.0458,-6.5074,-0.1609
14.0500,-6.5036,-0.1620
14.0542,-6.4992,-0.1631
14.0583,-6.4919,-0.1574
14.0625,-6.4954,-0.1576
14.0667,-6.4975,-0.1568
14.0708,-6.5003,-0.1562
14.0750,-6.5032,-0.1558
14.0792,-6.5062,-0.1554
14.0833,-6.5091,-0.1550
14.0875,-6.5120,-0.1548
14.0917,-6.5148,-0.1546
14.0958,-6.5174,-0.1545
14.1000,-6.5198,-0.1545
14.1042,-6.5219,-0.1545
14.1083,-6.5236,-0.1547
14.1125,-6.5249,-0.1549
14.1167,-6.5258,-0.1552
14.1208,-6.5263,-0.1556
14.1250,-6.5262,-0.1561
14.1292,-6.5256,-0.1566
14.1333,-6.5244,-0.1573
14.1375,-6.5226,-0.1580
14.1417,-6.5203,-0.1589
14.1458,-6.5172,-0.1598
14.1500,-6.5136,-0.1608
14.1542,-6.5092,-0.1619
14.1583,-6.5042,-0.1631
14.1625,-6.4963,-0.1573
14.1667,-6.4994,-0.1576
14.1708,-6.5010,-0.1569
14.1750,-6.5033,-0.1564
14.1792,-6.5056,-0.1560
14.1833,-6.5081,-0.1557
14.1875,-6.5105,-0.1554
14.1917,-6.5129,-0.1553
14.1958,-6.5151,-0.1552
14.2000,-6.5171,-0.1551
14.2042,-6.5188,-0.1552
14.2083,-6.5203,-0.1553
14.2125,-6.5213,-0.1556
14.2167,-6.5220,-0.1559
14.2208,-6.5221,-0.1563
14.2250,-6.5218,-0.1568
14.2292,-6.5210,-0.1574
14.2333,-6.5196,-0.1580
14.2375,-6.5176,-0.1588
14.2417,-6.5150,-0.1596
14.2458,-6.5118,-0.1605
14.2500,-6.5079,-0.1615
14.2542,-6.5034,-0.1626
14.2583,-6.4983,-0.1638
14.2625,-6.4902,-0.1580
14.2667,-6.4933,-0.1583
14.2708,-6.4949,-0.1576
14.2750,-6.4971,-0.1571
14.2792,-6.4995,-0.1567
14.2833,-6.5019,-0.1564
14.2875,-6.5043,-0.1561
14.2917,-6.5066,-0.1560
14.2958,-6.5088,-0.1559
14.3000,-6.5107,-0.1558
14.3042,-6.5124,-0.1559
14.3083,-6.5138,-0.1561
14.3125,-6.5148,-0.1563
14.3167,-6.5154,-0.1566
14.3208,-6.5155,-0.1570
14.3250,-6.5152,-0.1575
14.3292,-6.5143,-0.1581
14.3333,-6.5129,-0.1587
14.3375,-6.5109,-0.1595
14.3417,-6.5083,-0.1604
14.3458,-6.5050,-0.1613
14.3500,-6.5011,-0.1623
14.3542,-6.4965,-0.1634
14.3583,-6.4913,-0.1646
14.3625,-6.4831,-0.1588
14.3667,-6.4861,-0.1591
14.3708,-6.4878,-0.1584
14.3750,-6.4899,-0.1579
14.3792,-6.4922,-0.1575
14.3833,-6.4946,-0.1572
14.3875,-6.4969,-0.1570
14.3917,-6.4991,-0.1568
14.3958,-6.5012,-0.1567
14.4000,-6.5031,-0.1567
14.4042,-6.5047,-0.1568
14.4083,-6.5060,-0.1570
14.4125,-6.5069,-0.1572
14.4167,-6.5074,-0.1575
14.4208,-6.5075,-0.1579
14.4250,-6.5070,-0.1584
14.4292,-6.5061,-0.1590
14.4333,-6.5045,-0.1597
14.4375,-6.5024,-0.1605
14.4417,-6.4997,-0.1614
14.4458,-6.4963,-0.1623
14.4500,-6.4922,-0.1634
14.4542,-6.4875,-0.1645
14.4583,-6.4801,-0.1588
14.4625,-6.4833,-0.1591
14.4667,-6.4852,-0.1583
14.4708,-6.4877,-0.1577
14.4750,-6.4903,-0.1572
14.4792,-6.4932,-0.1568
14.4833,-6.4960,-0.1565
14.4875,-6.4988,-0.1562
14.4917,-6.5015,-0.1561
14.4958,-6.5041,-0.1560
14.5000,-6.5063,-0.1560
14.5042,-6.5083,-0.1560
14.5083,-6.5100,-0.1562
14.5125,-6.5112,-0.1564
14.5167,-6.5120,-0.1567
14.5208,-6.5123,-0.1572
14.5250,-6.5121,-0.1577
14.5292,-6.5114,-0.1582
14.5333,-6.5101,-0.1589
14.5375,-6.5082,-0.1597
14.5417,-6.5057,-0.1605
14.5458,-6.5025,-0.1615
14.5500,-6.4987,-0.1625
14.5542,-6.4942,-0.1637
14.5583,-6.4869,-0.1579
14.5625,-6.4904,-0.1581
14.5667,-6.4925,-0.1573
14.5708,-6.4952,-0.1568
14.5750,-6.4981,-0.1563
14.5792,-6.5011,-0.1559
14.5833,-6.5041,-0.1556
14.5875,-6.5070,-0.1554
14.5917,-6.5097,-0.1552
14.5958,-6.5122,-0.1551
14.6000,-6.5145,-0.1551
14.6042,-6.5165,-0.1551
14.6083,-6.5182,-0.1553
14.6125,-6.5194,-0.1555
14.6167,-6.5203,-0.1559
14.6208,-6.5206,-0.1563
14.6250,-6.5204,-0.1567
14.6292,-6.5198,-0.1573
14.6333,-6.5185,-0.1580
14.6375,-6.5166,-0.1588
14.6417,-6.5142,-0.1596
14.6458,-6.5110,-0.1605
14.6500,-6.5073,-0.1616
14.6542,-6.5028,-0.1627
14.6583,-6.4977,-0.1639
14.6625,-6.4896,-0.1580
14.6667,-6.4927,-0.1583
14.6708,-6.4944,-0.1576
14.6750,-6.4966,-0.1572
14.6792,-6.4989,-0.1568
14.6833,-6.5013,-0.1565
14.6875,-6.5036,-0.1563
14.6917,-6.5059,-0.1561
14.6958,-6.5080,-0.1560
14.7000,-6.5099,-0.1560
14.7042,-6.5115,-0.1561
14.7083,-6.5127,-0.1563
14.7125,-6.5136,-0.1565
14.7167,-6.5141,-0.1569
14.7208,-6.5141,-0.1573
14.7250,-6.5136,-0.1578
14.7292,-6.5126,-0.1584
14.7333,-6.5111,-0.1591
14.7375,-6.5089,-0.1598
14.7417,-6.5062,-0.1607
14.7458,-6.5028,-0.1617
14.7500,-6.4987,-0.1627
14.7542,-6.4940,-0.1639
14.7583,-6.4864,-0.1582
14.7625,-6.4897,-0.1584
14.7667,-6.4915,-0.1577
14.7708,-6.4939,-0.1571
14.7750,-6.4966,-0.1566
14.7792,-6.4993,-0.1562
14.7833,-6.5021,-0.1559
14.7875,-6.5049,-0.1556
14.7917,-6.5076,-0.1555
14.7958,-6.5101,-0.1554
14.8000,-6.5124,-0.1553
14.8042,-6.5143,-0.1554
14.8083,-6.5159,-0.1556
14.8125,-6.5172,-0.1558
14.8167,-6.5180,-0.1561
14.8208,-6.5183,-0.1565
14.8250,-6.5181,-0.1570
14.8292,-6.5174,-0.1576
14.8333,-6.5161,-0.1583
14.8375,-6.5142,-0.1590
14.8417,-6.5117,-0.1599
14.8458,-6.5085,-0.1608
14.8500,-6.5047,-0.1619
14.8542,-6.5002,-0.1630
14.8583,-6.4930,-0.1573
14.8625,-6.4964,-0.1575
14.8667,-6.4985,-0.1567
14.8708,-6.5013,-0.1562
14.8750,-6.5042,-0.1557
14.8792,-6.5071,-0.1553
14.8833,-6.5101,-0.1550
14.8875,-6.5129,-0.1547
14.8917,-6.5157,-0.1545
14.8958,-6.5183,-0.1544
14.9000,-6.5207,-0.1544
14.9042,-6.5227,-0.1544
14.9083,-6.5245,-0.1546
14.9125,-6.5258,-0.1548
14.9167,-6.5267,-0.1551
14.9208,-6.5271,-0.1555
14.9250,-6.5270,-0.1560
14.9292,-6.5264,-0.1566
14.9333,-6.5252,-0.1572
14.9375,-6.5235,-0.1580
14.9417,-6.5211,-0.1588
14.9458,-6.5180,-0.1597
14.9500,-6.5144,-0.1607
14.9542,-6.5100,-0.1618
14.9583,-6.5050,-0.1630
14.9625,-6.4970,-0.1573
14.9667,-6.5001,-0.1575
14.9708,-6.5018,-0.1568
14.9750,-6.5040,-0.1564
14.9792,-6.5063,-0.1560
14.9833,-6.5088,-0.1556
14.9875,-6.5112,-0.1554
14.9917,-6.5136,-0.1552
14.9958,-6.5158,-0.1551
15.0000,-6.5178,-0.1551
15.0042,-6.5195,-0.1551
15.0083,-6.5209,-0.1553
15.0125,-6.5220,-0.1555
15.0167,-6.5226,-0.1558
15.0208,-6.5228,-0.1562
15.0250,-6.5225,-0.1567
15.0292,-6.5217,-0.1573
15.0333,-6.5203,-0.1580
15.0375,-6.5183,-0.1587
15.0417,-6.5157,-0.1595
15.0458,-6.5125,-0.1605
15.0500,-6.5086,-0.1615
15.0542,-6.5041,-0.1626
15.0583,-6.4990,-0.1638
15.0625,-6.4909,-0.1579
15.0667,-6.4940,-0.1582
15.0708,-6.4956,-0.1575
15.0750,-6.4979,-0.1570
15.0792,-6.5002,-0.1566
15.0833,-6.5026,-0.1563
15.0875,-6.5050,-0.1560
15.0917,-6.5073,-0.1559
15.0958,-6.5095,-0.1558
15.1000,-6.5115,-0.1558
15.1042,-6.5132,-0.1558
15.1083,-6.5146,-0.1560
15.1125,-6.5156,-0.1562
15.1167,-6.5162,-0.1565
15.1208,-6.5164,-0.1569
15.1250,-6.5160,-0.1574
15.1292,-6.5152,-0.1580
15.1333,-6.5138,-0.1586
15.1375,-6.5118,-0.1594
15.1417,-6.5092,-0.1603
15.1458,-6.5059,-0.1612
15.1500,-6.5020,-0.1622
15.1542,-6.4975,-0.1633
15.1583,-6.4922,-0.1645
15.1625,-6.4841,-0.1587
15.1667,-6.4871,-0.1590
15.1708,-6.4888,-0.1583
15.1750,-6.4909,-0.1578
15.1792,-6.4932,-0.1574
15.1833,-6.4956,-0.1571
15.1875,-6.4980,-0.1568
15.1917,-6.5002,-0.1567
15.1958,-6.5023,-0.1566
15.2000,-6.5042,-0.1566
15.2042,-6.5059,-0.1566
15.2083,-6.5072,-0.1568
15.2125,-6.5081,-0.1570
15.2167,-6.5087,-0.1574
15.2208,-6.5087,-0.1578
15.2250,-6.5083,-0.1583
15.2292,-6.5074,-0.1589
15.2333,-6.5059,-0.1596
15.2375,-6.5038,-0.1603
15.2417,-6.5011,-0.1612
15.2458,-6.4977,-0.1622
15.2500,-6.4937,-0.1632
15.2542,-6.4890,-0.1643
15.2583,-6.4837,-0.1655
15.2625,-6.4754,-0.1596
15.2667,-6.4784,-0.1599
15.2708,-6.4800,-0.1593
15.2750,-6.4821,-0.1588
15.2792,-6.4843,-0.1585
15.2833,-6.4865,-0.1582
15.2875,-6.4888,-0.1579
15.2917,-6.4909,-0.1578
15.2958,-6.4929,-0.1577
15.3000,-6.4946,-0.1577
15.3042,-6.4961,-0.1578
15.3083,-6.4972,-0.1580
15.3125,-6.4980,-0.1583
15.3167,-6.4983,-0.1586
15.3208,-6.4982,-0.1591
15.3250,-6.4976,-0.1596
15.3292,-6.4964,-0.1602
15.3333,-6.4947,-0.1609
15.3375,-6.4924,-0.1617
15.3417,-6.4896,-0.1626
15.3458,-6.4860,-0.1636
15.3500,-6.4818,-0.1647
15.3542,-6.4768,-0.1659
15.3583,-6.4690,-0.1600
15.3625,-6.4723,-0.1602
15.3667,-6.4742,-0.1595
15.3708,-6.4767,-0.1590
15.3750,-6.4793,-0.1586
15.3792,-6.4820,-0.1582
15.3833,-6.4847,-0.1579
15.3875,-6.4873,-0.1577
15.3917,-6.4898,-0.1576
15.3958,-6.4920,-0.1575
15.4000,-6.4940,-0.1575
15.4042,-6.4957,-0.1577
15.4083,-6.4970,-0.1579
15.4125,-6.4979,-0.1582
15.4167,-6.4984,-0.1585
15.4208,-6.4983,-0.1590
15.4250,-6.4976,-0.1596
15.4292,-6.4964,-0.1602
15.4333,-6.4946,-0.1609
15.4375,-6.4923,-0.1617
15.4417,-6.4893,-0.1627
15.4458,-6.4857,-0.1636
15.4500,-6.4815,-0.1647
15.4542,-6.4766,-0.1659
15.4583,-6.4687,-0.1600
15.4625,-6.4720,-0.1603
15.4667,-6.4739,-0.1596
15.4708,-6.4763,-0.1591
15.4750,-6.4788,-0.1587
15.4792,-6.4814,-0.1584
15.4833,-6.4839,-0.1581
15.4875,-6.4864,-0.1579
15.4917,-6.4887,-0.1578
15.4958,-6.4908,-0.1578
15.5000,-6.4926,-0.1579
15.5042,-6.4941,-0.1580
15.5083,-6.4952,-0.1583
15.5125,-6.4959,-0.1586
15.5167,-6.4961,-0.1590
15.5208,-6.4958,-0.1595
15.5250,-6.4950,-0.1601
15.5292,-6.4936,-0.1607
15.5333,-6.4916,-0.1615
15.5375,-6.4890,-0.1624
15.5417,-6.4857,-0.1633
15.5458,-6.4818,-0.1643
15.5500,-6.4773,-0.1655
15.5542,-6.4699,-0.1597
15.5583,-6.4733,-0.1600
15.5625,-6.4754,-0.1592
15.5667,-6.4780,-0.1587
15.5708,-6.4807,-0.1582
15.5750,-6.4836,-0.1577
15.5792,-6.4866,-0.1574
15.5833,-6.4895,-0.1571
15.5875,-6.4922,-0.1570
15.5917,-6.4948,-0.1569
15.5958,-6.4971,-0.1569
15.6000,-6.4992,-0.1569
15.6042,-6.5008,-0.1571
15.6083,-6.5021,-0.1573
15.6125,-6.5029,-0.1577
15.6167,-6.5033,-0.1581
15.6208,-6.5031,-0.1586
15.6250,-6.5024,-0.1592
15.6292,-6.5011,-0.1598
15.6333,-6.4992,-0.1606
15.6375,-6.4967,-0.1615
15.6417,-6.4936,-0.1624
15.6458,-6.4897,-0.1635
15.6500,-6.4852,-0.1646
15.6542,-6.4779,-0.1588
15.6583,-6.4814,-0.1590
15.6625,-6.4836,-0.1583
15.6667,-6.4863,-0.1577
15.6708,-6.4891,-0.1573
15.6750,-6.4921,-0.1569
15.6792,-6.4950,-0.1566
15.6833,-6.4979,-0.1563
15.6875,-6.5007,-0.1562
15.6917,-6.5032,-0.1561
15.6958,-6.5055,-0.1561
15.7000,-6.5074,-0.1562
15.7042,-6.5089,-0.1564
15.7083,-6.5100,-0.1566
15.7125,-6.5107,-0.1570
15.7167,-6.5108,-0.1574
15.7208,-6.5105,-0.1579
15.7250,-6.5097,-0.1585
15.7292,-6.5082,-0.1592
15.7333,-6.5062,-0.1600
15.7375,-6.5036,-0.1608
15.7417,-6.5003,-0.1618
15.7458,-6.4964,-0.1629
15.7500,-6.4918,-0.1640
15.7542,-6.4843,-0.1583
15.7583,-6.4877,-0.1585
15.7625,-6.4897,-0.1577
15.7667,-6.4923,-0.1572
15.7708,-6.4950,-0.1567
15.7750,-6.4978,-0.1564
15.7792,-6.5007,-0.1561
15.7833,-6.5034,-0.1559
15.7875,-6.5060,-0.1557
15.7917,-6.5084,-0.1556
15.7958,-6.5105,-0.1556
15.8000,-6.5124,-0.1557
15.8042,-6.5139,-0.1559
15.8083,-6.5150,-0.1561
15.8125,-6.5157,-0.1565
15.8167,-6.5159,-0.1569
15.8208,-6.5156,-0.1574
15.8250,-6.5147,-0.1580
15.8292,-6.5133,-0.1587
15.8333,-6.5113,-0.1595
15.8375,-6.5087,-0.1603
15.8417,-6.5054,-0.1613
15.8458,-6.5015,-0.1623
15.8500,-6.4968,-0.1635
15.8542,-6.4894,-0.1577
15.8583,-6.4928,-0.1580
15.8625,-6.4948,-0.1572
15.8667,-6.4974,-0.1567
15.8708,-6.5002,-0.1562
15.8750,-6.5031,-0.1558
15.8792,-6.5059,-0.1555
15.8833,-6.5088,-0.1552
15.8875,-6.5114,-0.1551
15.8917,-6.5139,-0.1550
15.8958,-6.5161,-0.1551
15.9000,-6.5179,-0.1551
15.9042,-6.5194,-0.1553
15.9083,-6.5205,-0.1556
15.9125,-6.5212,-0.1559
15.9167,-6.5214,-0.1563
15.9208,-6.5211,-0.1568
15.9250,-6.5202,-0.1574
15.9292,-6.5188,-0.1581
15.9333,-6.5168,-0.1589
15.9375,-6.5142,-0.1597
15.9417,-6.5109,-0.1607
15.9458,-6.5070,-0.1617
15.9500,-6.5024,-0.1629
15.9542,-6.4950,-0.1572
15.9583,-6.4984,-0.1574
15.9625,-6.5004,-0.1566
15.9667,-6.5030,-0.1561
15.9708,-6.5057,-0.1556
15.9750,-6.5085,-0.1552
15.9792,-6.5114,-0.1549
15.9833,-6.5142,-0.1546
15.9875,-6.5169,-0.1545
15.9917,-6.5194,-0.1544
15.9958,-6.5217,-0.1543
16.0000,-6.5237,-0.1544
16.0042,-6.5253,-0.1546
16.0083,-6.5266,-0.1548
16.0125,-6.5274,-0.1551
16.0167,-6.5278,-0.1555
16.0208,-6.5276,-0.1560
16.0250,-6.5269,-0.1566
16.0292,-6.5257,-0.1572
16.0333,-6.5238,-0.1580
16.0375,-6.5213,-0.1588
16.0417,-6.5182,-0.1598
16.0458,-6.5145,-0.1608
16.0500,-6.5100,-0.1619
16.0542,-6.5049,-0.1631
16.0583,-6.4969,-0.1573
16.0625,-6.4999,-0.1576
16.0667,-6.5016,-0.1569
16.0708,-6.5038,-0.1565
16.0750,-6.5061,-0.1561
16.0792,-6.5084,-0.1557
16.0833,-6.5108,-0.1555
16.0875,-6.5131,-0.1553
16.0917,-6.5152,-0.1552
16.0958,-6.5172,-0.1552
16.1000,-6.5188,-0.1553
16.1042,-6.5202,-0.1554
16.1083,-6.5212,-0.1557
16.1125,-6.5217,-0.1560
16.1167,-6.5218,-0.1564
16.1208,-6.5214,-0.1569
16.1250,-6.5205,-0.1575
16.1292,-6.5191,-0.1582
16.1333,-6.5170,-0.1589
16.1375,-6.5144,-0.1598
16.1417,-6.5110,-0.1607
16.1458,-6.5071,-0.1617
16.1500,-6.5025,-0.1628
16.1542,-6.4972,-0.1641
16.1583,-6.4890,-0.1582
16.1625,-6.4921,-0.1585
16.1667,-6.4937,-0.1578
16.1708,-6.4958,-0.1573
16.1750,-6.4981,-0.1569
16.1792,-6.5005,-0.1566
16.1833,-6.5028,-0.1564
16.1875,-6.5050,-0.1562
16.1917,-6.5071,-0.1561
16.1958,-6.5090,-0.1561
16.2000,-6.5106,-0.1562
16.2042,-6.5119,-0.1563
16.2083,-6.5128,-0.1566
16.2125,-6.5133,-0.1569
16.2167,-6.5134,-0.1573
16.2208,-6.5130,-0.1578
16.2250,-6.5120,-0.1584
16.2292,-6.5105,-0.1591
16.2333,-6.5084,-0.1598
16.2375,-6.5057,-0.1607
16.2417,-6.5024,-0.1617
16.2458,-6.4984,-0.1627
16.2500,-6.4937,-0.1638
16.2542,-6.4862,-0.1582
16.2583,-6.4895,-0.1584
16.2625,-6.4913,-0.1576
16.2667,-6.4939,-0.1571
16.2708,-6.4966,-0.1566
16.2750,-6.4994,-0.1561
16.2792,-6.5023,-0.1558
16.2833,-6.5052,-0.1555
16.2875,-6.5079,-0.1553
16.2917,-6.5105,-0.1552
16.2958,-6.5128,-0.1552
16.3000,-6.5149,-0.1553
16.3042,-6.5166,-0.1554
16.3083,-6.5179,-0.1556
16.3125,-6.5188,-0.1560
16.3167,-6.5192,-0.1564
16.3208,-6.5191,-0.1568
16.3250,-6.5185,-0.1574
16.3292,-6.5172,-0.1581
16.3333,-6.5154,-0.1588
16.3375,-6.5130,-0.1597
16.3417,-6.5100,-0.1606
16.3458,-6.5063,-0.1616
16.3500,-6.5019,-0.1627
16.3542,-6.4968,-0.1639
16.3583,-6.4888,-0.1581
16.3625,-6.4919,-0.1584
16.3667,-6.4936,-0.1577
16.3708,-6.4958,-0.1573
16.3750,-6.4982,-0.1569
16.3792,-6.5006,-0.1565
16.3833,-6.5030,-0.1563
16.3875,-6.5053,-0.1561
16.3917,-6.5074,-0.1560
16.3958,-6.5093,-0.1560
16.4000,-6.5110,-0.1561
16.4042,-6.5123,-0.1563
16.4083,-6.5133,-0.1565
16.4125,-6.5138,-0.1568
16.4167,-6.5139,-0.1573
16.4208,-6.5134,-0.1578
16.4250,-6.5125,-0.1583
16.4292,-6.5110,-0.1590
16.4333,-6.5089,-0.1598
16.4375,-6.5062,-0.1607
16.4417,-6.5028,-0.1616
16.4458,-6.4988,-0.1627
16.4500,-6.4941,-0.1638
16.4542,-6.4867,-0.1581
16.4583,-6.4900,-0.1583
16.4625,-6.4920,-0.1575
16.4667,-6.4946,-0.1569
16.4708,-6.4974,-0.1564
16.4750,-6.5003,-0.1561
16.4792,-6.5032,-0.1558
16.4833,-6.5059,-0.1555
16.4875,-6.5086,-0.1553
16.4917,-6.5111,-0.1552
16.4958,-6.5134,-0.1552
16.5000,-6.5154,-0.1552
16.5042,-6.5171,-0.1554
16.5083,-6.5183,-0.1556
16.5125,-6.5192,-0.1560
16.5167,-6.5195,-0.1563
16.5208,-6.5194,-0.1568
16.5250,-6.5187,-0.1574
16.5292,-6.5175,-0.1581
16.5333,-6.5156,-0.1588
16.5375,-6.5131,-0.1597
16.5417,-6.5100,-0.1606
16.5458,-6.5063,-0.1616
16.5500,-6.5019,-0.1628
16.5542,-6.4968,-0.1640
16.5583,-6.4887,-0.1581
16.5625,-6.4918,-0.1584
16.5667,-6.4935,-0.1577
16.5708,-6.4957,-0.1573
16.5750,-6.4980,-0.1569
16.5792,-6.5003,-0.1566
16.5833,-6.5027,-0.1563
16.5875,-6.5050,-0.1562
16.5917,-6.5071,-0.1561
16.5958,-6.5090,-0.1561
16.6000,-6.5106,-0.1562
16.6042,-6.5119,-0.1563
16.6083,-6.5128,-0.1566
16.6125,-6.5133,-0.1569
16.6167,-6.5134,-0.1573
16.6208,-6.5129,-0.1578
16.6250,-6.5120,-0.1584
16.6292,-6.5105,-0.1591
16.6333,-6.5083,-0.1599
16.6375,-6.5056,-0.1608
16.6417,-6.5022,-0.1617
16.6458,-6.4981,-0.1627
16.6500,-6.4935,-0.1639
16.6542,-6.4860,-0.1582
16.6583,-6.4893,-0.1583
16.6625,-6.4913,-0.1576
16.6667,-6.4939,-0.1570
16.6708,-6.4967,-0.1566
16.6750,-6.4995,-0.1562
16.6792,-6.5024,-0.1559
16.6833,-6.5051,-0.1556
16.6875,-6.5078,-0.1554
16.6917,-6.5103,-0.1553
16.6958,-6.5126,-0.1553
16.7000,-6.5146,-0.1554
16.7042,-6.5162,-0.1555
16.7083,-6.5174,-0.1558
16.7125,-6.5182,-0.1561
16.7167,-6.5186,-0.1565
16.7208,-6.5184,-0.1570
16.7250,-6.5177,-0.1576
16.7292,-6.5164,-0.1582
16.7333,-6.5145,-0.1590
16.7375,-6.5120,-0.1598
16.7417,-6.5089,-0.1608
16.7458,-6.5051,-0.1618
16.7500,-6.5007,-0.1629
16.7542,-6.4955,-0.1641
16.7583,-6.4874,-0.1583
16.7625,-6.4906,-0.1586
16.7667,-6.4922,-0.1579
16.7708,-6.4944,-0.1575
16.7750,-6.4967,-0.1571
16.7792,-6.4991,-0.1567
16.7833,-6.5014,-0.1565
16.7875,-6.5036,-0.1564
16.7917,-6.5057,-0.1563
16.7958,-6.5076,-0.1563
16.8000,-6.5091,-0.1564
16.8042,-6.5104,-0.1565
16.8083,-6.5113,-0.1568
16.8125,-6.5117,-0.1571
16.8167,-6.5117,-0.1576
16.8208,-6.5112,-0.1581
16.8250,-6.5102,-0.1587
16.8292,-6.5086,-0.1594
16.8333,-6.5064,-0.1601
16.8375,-6.5037,-0.1610
16.8417,-6.5002,-0.1620
16.8458,-6.4961,-0.1630
16.8500,-6.4914,-0.1642
16.8542,-6.4838,-0.1585
16.8583,-6.4870,-0.1587
16.8625,-6.4889,-0.1579
16.8667,-6.4914,-0.1574
16.8708,-6.4940,-0.1569
16.8750,-6.4967,-0.1565
16.8792,-6.4995,-0.1562
16.8833,-6.5022,-0.1560
16.8875,-6.5049,-0.1558
16.8917,-6.5073,-0.1557
16.8958,-6.5095,-0.1557
16.9000,-6.5115,-0.1558
16.9042,-6.5130,-0.1559
16.9083,-6.5142,-0.1562
16.9125,-6.5150,-0.1565
16.9167,-6.5152,-0.1569
16.9208,-6.5150,-0.1574
16.9250,-6.5142,-0.1580
16.9292,-6.5128,-0.1587
16.9333,-6.5109,-0.1594
16.9375,-6.5083,-0.1603
16.9417,-6.5051,-0.1612
16.9458,-6.5013,-0.1623
16.9500,-6.4968,-0.1634
16.9542,-6.4894,-0.1577
16.9583,-6.4929,-0.1579
16.9625,-6.4950,-0.1571
16.9667,-6.4977,-0.1566
16.9708,-6.5005,-0.1561
16.9750,-6.5034,-0.1557
16.9792,-6.5064,-0.1554
16.9833,-6.5093,-0.1551
16.9875,-6.5120,-0.1550
16.9917,-6.5145,-0.1549
16.9958,-6.5168,-0.1549
17.0000,-6.5188,-0.1549
17.0042,-6.5204,-0.1551
17.0083,-6.5216,-0.1553
17.0125,-6.5224,-0.1556
17.0167,-6.5228,-0.1560
17.0208,-6.5226,-0.1565
17.0250,-6.5219,-0.1571
17.0292,-6.5206,-0.1578
17.0333,-6.5187,-0.1585
17.0375,-6.5162,-0.1594
17.0417,-6.5131,-0.1603
17.0458,-6.5093,-0.1613
17.0500,-6.5049,-0.1625
17.0542,-6.4998,-0.1637
17.0583,-6.4917,-0.1578
17.0625,-6.4948,-0.1581
17.0667,-6.4964,-0.1574
17.0708,-6.4986,-0.1570
17.0750,-6.5009,-0.1566
17.0792,-6.5033,-0.1563
17.0833,-6.5057,-0.1561
17.0875,-6.5079,-0.1559
17.0917,-6.5100,-0.1558
17.0958,-6.5119,-0.1558
17.1000,-6.5135,-0.1559
17.1042,-6.5148,-0.1561
17.1083,-6.5157,-0.1563
17.1125,-6.5162,-0.1566
17.1167,-6.5162,-0.1571
17.1208,-6.5157,-0.1576
17.1250,-6.5147,-0.1581
17.1292,-6.5132,-0.1588
17.1333,-6.5111,-0.1596
17.1375,-6.5084,-0.1605
17.1417,-6.5050,-0.1614
17.1458,-6.5009,-0.1625
17.1500,-6.4962,-0.1636
17.1542,-6.4908,-0.1648
17.1583,-6.4825,-0.1589
17.1625,-6.4854,-0.1593
17.1667,-6.4869,-0.1586
17.1708,-6.4889,-0.1582
17.1750,-6.4911,-0.1578
17.1792,-6.4933,-0.1575
17.1833,-6.4955,-0.1573
17.1875,-6.4976,-0.1571
17.1917,-6.4995,-0.1570
17.1958,-6.5013,-0.1571
17.2000,-6.5027,-0.1572
17.2042,-6.5038,-0.1573
17.2083,-6.5046,-0.1576
17.2125,-6.5049,-0.1580
17.2167,-6.5048,-0.1584
17.2208,-6.5041,-0.1589
17.2250,-6.5030,-0.1595
17.2292,-6.5013,-0.1602
17.2333,-6.4990,-0.1610
17.2375,-6.4961,-0.1619
17.2417,-6.4926,-0.1629
17.2458,-6.4884,-0.1640
17.2500,-6.4835,-0.1651
17.2542,-6.4757,-0.1593
17.2583,-6.4789,-0.1595
17.2625,-6.4808,-0.1588
17.2667,-6.4833,-0.1583
17.2708,-6.4859,-0.1578
17.2750,-6.4886,-0.1575
17.2792,-6.4914,-0.1572
17.2833,-6.4940,-0.1569
17.2875,-6.4965,-0.1568
17.2917,-6.4988,-0.1567
17.2958,-6.5009,-0.1568
17.3000,-6.5026,-0.1569
17.3042,-6.5040,-0.1571
17.3083,-6.5049,-0.1574
17.3125,-6.5054,-0.1577
17.3167,-6.5053,-0.1582
17.3208,-6.5047,-0.1587
17.3250,-6.5036,-0.1594
17.3292,-6.5020,-0.1601
17.3333,-6.4997,-0.1609
17.3375,-6.4968,-0.1618
17.3417,-6.4933,-0.1627
17.3458,-6.4892,-0.1638
17.3500,-6.4843,-0.1650
17.3542,-6.4766,-0.1592
17.3583,-6.4799,-0.1595
17.3625,-6.4818,-0.1587
17.3667,-6.4842,-0.1582
17.3708,-6.4868,-0.1578
17.3750,-6.4894,-0.1574
17.3792,-6.4921,-0.1571
17.3833,-6.4947,-0.1569
17.3875,-6.4971,-0.1568
17.3917,-6.4993,-0.1568
17.3958,-6.5013,-0.1568
17.4000,-6.5029,-0.1569
17.4042,-6.5042,-0.1572
17.4083,-6.5050,-0.1575
17.4125,-6.5053,-0.1579
17.4167,-6.5052,-0.1583
17.4208,-6.5045,-0.1589
17.4250,-6.5033,-0.1595
17.4292,-6.5015,-0.1602
17.4333,-6.4991,-0.1611
17.4375,-6.4961,-0.1620
17.4417,-6.4925,-0.1630
17.4458,-6.4882,-0.1641
17.4500,-6.4832,-0.1653
17.4542,-6.4753,-0.1594
17.4583,-6.4786,-0.1597
17.4625,-6.4804,-0.1589
17.4667,-6.4828,-0.1585
17.4708,-6.4853,-0.1581
17.4750,-6.4878,-0.1577
17.4792,-6.4904,-0.1575
17.4833,-6.4928,-0.1573
17.4875,-6.4951,-0.1572
17.4917,-6.4972,-0.1572
17.4958,-6.4990,-0.1572
17.5000,-6.5004,-0.1574
17.5042,-6.5015,-0.1576
17.5083,-6.5021,-0.1579
17.5125,-6.5023,-0.1583
17.5167,-6.5021,-0.1588
17.5208,-6.5012,-0.1594
17.5250,-6.4999,-0.1601
17.5292,-6.4979,-0.1609
17.5333,-6.4952,-0.1617
17.5375,-6.4920,-0.1626
17.5417,-6.4881,-0.1637
17.5458,-6.4835,-0.1648
17.5500,-6.4766,-0.1614
17.5542,-6.4735,-0.1587
17.5583,-6.4774,-0.1585
17.5625,-6.4806,-0.1579
17.5667,-6.4840,-0.1574
17.5708,-6.4874,-0.1570
17.5750,-6.4908,-0.1567
17.5792,-6.4941,-0.1564
17.5833,-6.4972,-0.1562
17.5875,-6.5001,-0.1561
17.5917,-6.5028,-0.1561
17.5958,-6.5051,-0.1561
17.6000,-6.5070,-0.1563
17.6042,-6.5085,-0.1565
17.6083,-6.5095,-0.1568
17.6125,-6.5100,-0.1572
17.6167,-6.5101,-0.1577
17.6208,-6.5095,-0.1583
17.6250,-6.5084,-0.1590
17.6292,-6.5067,-0.1597
17.6333,-6.5043,-0.1606
17.6375,-6.5012,-0.1616
17.6417,-6.4975,-0.1626
17.6458,-6.4930,-0.1637
17.6500,-6.4879,-0.1649
17.6542,-6.4799,-0.1590
17.6583,-6.4830,-0.1593
17.6625,-6.4847,-0.1587
17.6667,-6.4869,-0.1582
17.6708,-6.4892,-0.1578
17.6750,-6.4916,-0.1575
17.6792,-6.4939,-0.1573
17.6833,-6.4962,-0.1571
17.6875,-6.4983,-0.1571
17.6917,-6.5001,-0.1571
17.6958,-6.5017,-0.1572
17.7000,-6.5029,-0.1573
17.7042,-6.5038,-0.1576
17.7083,-6.5042,-0.1579
17.7125,-6.5042,-0.1584
17.7167,-6.5037,-0.1589
17.7208,-6.5026,-0.1595
17.7250,-6.5010,-0.1602
17.7292,-6.4988,-0.1610
17.7333,-6.4960,-0.1619
17.7375,-6.4925,-0.1628
17.7417,-6.4884,-0.1639
17.7458,-6.4836,-0.1650
17.7500,-6.4760,-0.1592
17.7542,-6.4793,-0.1595
17.7583,-6.4812,-0.1587
17.7625,-6.4838,-0.1582
17.7667,-6.4865,-0.1577
17.7708,-6.4892,-0.1573
17.7750,-6.4920,-0.1570
17.7792,-6.4948,-0.1568
17.7833,-6.4974,-0.1566
17.7875,-6.4998,-0.1566
17.7917,-6.5019,-0.1566
17.7958,-6.5037,-0.1567
17.8000,-6.5051,-0.1569
17.8042,-6.5061,-0.1572
17.8083,-6.5066,-0.1575
17.8125,-6.5067,-0.1579
17.8167,-6.5063,-0.1585
17.8208,-6.5053,-0.1591
17.8250,-6.5038,-0.1598
17.8292,-6.5016,-0.1606
17.8333,-6.4989,-0.1614
17.8375,-6.4955,-0.1624
17.8417,-6.4915,-0.1635
17.8458,-6.4868,-0.1646
17.8500,-6.4792,-0.1588
17.8542,-6.4825,-0.1591
17.8583,-6.4845,-0.1583
17.8625,-6.4871,-0.1578
17.8667,-6.4898,-0.1574
17.8708,-6.4925,-0.1570
17.8750,-6.4953,-0.1567
17.8792,-6.4980,-0.1565
17.8833,-6.5006,-0.1563
17.8875,-6.5030,-0.1563
17.8917,-6.5050,-0.1563
17.8958,-6.5068,-0.1564
17.9000,-6.5082,-0.1566
17.9042,-6.5091,-0.1569
17.9083,-6.5096,-0.1573
17.9125,-6.5096,-0.1577
17.9167,-6.5091,-0.1583
17.9208,-6.5080,-0.1589
17.9250,-6.5064,-0.1596
17.9292,-6.5041,-0.1604
17.9333,-6.5013,-0.1613
17.9375,-6.4978,-0.1623
17.9417,-6.4937,-0.1633
17.9458,-6.4889,-0.1645
17.9500,-6.4812,-0.1587
17.9542,-6.4845,-0.1590
17.9583,-6.4864,-0.1582
17.9625,-6.4889,-0.1577
17.9667,-6.4915,-0.1573
17.9708,-6.4942,-0.1569
17.9750,-6.4968,-0.1566
17.9792,-6.4995,-0.1564
17.9833,-6.5019,-0.1563
17.9875,-6.5042,-0.1562
17.9917,-6.5062,-0.1563
17.9958,-6.5079,-0.1564
18.0000,-6.5092,-0.1566
18.0042,-6.5100,-0.1569
18.0083,-6.5104,-0.1573
18.0125,-6.5103,-0.1577
18.0167,-6.5097,-0.1583
18.0208,-6.5085,-0.1589
18.0250,-6.5068,-0.1596
18.0292,-6.5045,-0.1604
18.0333,-6.5015,-0.1613
18.0375,-6.4980,-0.1623
18.0417,-6.4938,-0.1634
18.0458,-6.4889,-0.1646
18.0500,-6.4810,-0.1587
18.0542,-6.4843,-0.1590
18.0583,-6.4862,-0.1583
18.0625,-6.4886,-0.1578
18.0667,-6.4912,-0.1574
18.0708,-6.4938,-0.1570
18.0750,-6.4964,-0.1568
18.0792,-6.4990,-0.1566
18.0833,-6.5013,-0.1564
18.0875,-6.5035,-0.1564
18.0917,-6.5054,-0.1565
18.0958,-6.5070,-0.1566
18.1000,-6.5082,-0.1568
18.1042,-6.5089,-0.1571
18.1083,-6.5093,-0.1575
18.1125,-6.5091,-0.1580
18.1167,-6.5084,-0.1585
18.1208,-6.5071,-0.1592
18.1250,-6.5053,-0.1599
18.1292,-6.5028,-0.1608
18.1333,-6.4997,-0.1617
18.1375,-6.4959,-0.1627
18.1417,-6.4916,-0.1638
18.1458,-6.4865,-0.1650
18.1500,-6.4785,-0.1592
18.1542,-6.4816,-0.1594
18.1583,-6.4833,-0.1587
18.1625,-6.4856,-0.1583
18.1667,-6.4880,-0.1579
18.1708,-6.4905,-0.1575
18.1750,-6.4929,-0.1573
18.1792,-6.4953,-0.1571
18.1833,-6.4975,-0.1570
18.1875,-6.4995,-0.1570
18.1917,-6.5013,-0.1570
18.1958,-6.5027,-0.1572
18.2000,-6.5038,-0.1574
18.2042,-6.5044,-0.1577
18.2083,-6.5046,-0.1581
18.2125,-6.5043,-0.1586
18.2167,-6.5034,-0.1592
18.2208,-6.5020,-0.1599
18.2250,-6.4999,-0.1607
18.2292,-6.4973,-0.1615
18.2333,-6.4940,-0.1624
18.2375,-6.4902,-0.1635
18.2417,-6.4856,-0.1646
18.2458,-6.4783,-0.1588
18.2500,-6.4817,-0.1590
18.2542,-6.4838,-0.1583
18.2583,-6.4865,-0.1578
18.2625,-6.4893,-0.1573
18.2667,-6.4922,-0.1568
18.2708,-6.4951,-0.1565
18.2750,-6.4980,-0.1562
18.2792,-6.5008,-0.1560
18.2833,-6.5035,-0.1559
18.2875,-6.5058,-0.1559
18.2917,-6.5079,-0.1560
18.2958,-6.5097,-0.1561
18.3000,-6.5110,-0.1563
18.3042,-6.5119,-0.1567
18.3083,-6.5123,-0.1571
18.3125,-6.5122,-0.1576
18.3167,-6.5116,-0.1581
18.3208,-6.5103,-0.1588
18.3250,-6.5085,-0.1595
18.3292,-6.5061,-0.1604
18.3333,-6.5031,-0.1613
18.3375,-6.4993,-0.1624
18.3417,-6.4949,-0.1635
18.3458,-6.4899,-0.1647
18.3500,-6.4818,-0.1588
18.3542,-6.4850,-0.1591
18.3583,-6.4867,-0.1584
18.3625,-6.4889,-0.1580
18.3667,-6.4912,-0.1576
18.3708,-6.4936,-0.1573
18.3750,-6.4960,-0.1571
18.3792,-6.4982,-0.1569
18.3833,-6.5003,-0.1568
18.3875,-6.5022,-0.1568
18.3917,-6.5038,-0.1569
18.3958,-6.5050,-0.1571
18.4000,-6.5059,-0.1574
18.4042,-6.5064,-0.1577
18.4083,-6.5064,-0.1581
18.4125,-6.5058,-0.1586
18.4167,-6.5048,-0.1592
18.4208,-6.5032,-0.1599
18.4250,-6.5011,-0.1607
18.4292,-6.4983,-0.1616
18.4333,-6.4948,-0.1626
18.4375,-6.4907,-0.1636
18.4417,-6.4859,-0.1648
18.4458,-6.4783,-0.1590
18.4500,-6.4815,-0.1592
18.4542,-6.4835,-0.1585
18.4583,-6.4860,-0.1580
18.4625,-6.4886,-0.1575
18.4667,-6.4914,-0.1571
18.4708,-6.4942,-0.1568
18.4750,-6.4969,-0.1566
18.4792,-6.4994,-0.1564
18.4833,-6.5017,-0.1564
18.4875,-6.5039,-0.1564
18.4917,-6.5057,-0.1564
18.4958,-6.5072,-0.1566
18.5000,-6.5082,-0.1569
18.5042,-6.5089,-0.1572
18.5083,-6.5091,-0.1576
18.5125,-6.5087,-0.1581
18.5167,-6.5078,-0.1587
18.5208,-6.5064,-0.1594
18.5250,-6.5043,-0.1602
18.5292,-6.5017,-0.1611
18.5333,-6.4984,-0.1621
18.5375,-6.4944,-0.1631
18.5417,-6.4898,-0.1643
18.5458,-6.4823,-0.1585
18.5500,-6.4857,-0.1587
18.5542,-6.4877,-0.1579
18.5583,-6.4904,-0.1574
18.5625,-6.4931,-0.1570
18.5667,-6.4960,-0.1566
18.5708,-6.4988,-0.1563
18.5750,-6.5016,-0.1560
18.5792,-6.5043,-0.1559
18.5833,-6.5067,-0.1558
18.5875,-6.5089,-0.1558
18.5917,-6.5107,-0.1559
18.5958,-6.5122,-0.1561
18.6000,-6.5132,-0.1564
18.6042,-6.5138,-0.1568
18.6083,-6.5139,-0.1572
18.6125,-6.5135,-0.1577
18.6167,-6.5125,-0.1583
18.6208,-6.5110,-0.1590
18.6250,-6.5089,-0.1598
18.6292,-6.5062,-0.1607
18.6333,-6.5028,-0.1616
18.6375,-6.4988,-0.1627
18.6417,-6.4941,-0.1638
18.6458,-6.4866,-0.1581
18.6500,-6.4899,-0.1583
18.6542,-6.4919,-0.1575
18.6583,-6.4945,-0.1570
18.6625,-6.4972,-0.1566
18.6667,-6.5000,-0.1562
18.6708,-6.5028,-0.1559
18.6750,-6.5055,-0.1556
18.6792,-6.5082,-0.1555
18.6833,-6.5106,-0.1554
18.6875,-6.5127,-0.1555
18.6917,-6.5146,-0.1556
18.6958,-6.5159,-0.1557
18.7000,-6.5169,-0.1560
18.7042,-6.5175,-0.1564
18.7083,-6.5176,-0.1568
18.7125,-6.5172,-0.1573
18.7167,-6.5163,-0.1579
18.7208,-6.5148,-0.1586
18.7250,-6.5127,-0.1594
18.7292,-6.5100,-0.1602
18.7333,-6.5066,-0.1612
18.7375,-6.5026,-0.1623
18.7417,-6.4979,-0.1634
18.7458,-6.4904,-0.1577
18.7500,-6.4937,-0.1579
18.7542,-6.4957,-0.1572
18.7583,-6.4982,-0.1566
18.7625,-6.4012,-0.0711
18.7667,-6.3422,-0.0770
18.7708,-6.3056,-0.0693
18.7750,-6.2909,-0.0643
18.7792,-6.3225,0.0839
18.7833,-6.5628,0.1179
18.7875,-6.8117,0.3973
18.7917,-7.1435,0.6259
18.7958,-7.4626,0.8007
18.8000,-7.9385,0.6606
18.8042,-8.2140,0.8726
18.8083,-8.4940,1.0057
18.8125,-8.5144,1.3690
18.8167,-8.3416,1.7600
18.8208,-8.3754,1.4346
18.8250,-8.1479,1.8926
18.8292,-7.5962,2.2795
18.8333,-7.0351,2.2802
18.8375,-6.4839,2.2920
18.8417,-5.9359,2.2878
18.8458,-5.4015,2.2915
18.8500,-4.8701,2.2875
18.8542,-4.3379,2.2848
18.8583,-3.8077,2.2821
18.8625,-3.2797,2.2799
18.8667,-2.7331,2.2857
18.8708,-2.1879,2.2838
18.8750,-1.6556,2.2929
18.8792,-1.1258,2.2901
18.8833,-0.5981,2.2880
18.8875,-0.0723,2.2866
18.8917,0.4516,2.2856
18.8958,0.9702,2.2885
18.9000,1.4868,2.2882
18.9042,2.0250,2.2974
18.9083,2.5622,2.2969
18.9125,3.1007,2.2972
18.9167,3.6374,2.2974
18.9208,4.1796,2.3007
18.9250,4.7202,2.3013
18.9292,5.2588,2.3023
18.9333,5.7981,2.3068
18.9375,6.3356,2.3083
18.9417,6.8841,2.3135
18.9458,7.4312,2.3150
18.9500,7.9785,2.3171
18.9542,8.5239,2.3196
18.9583,9.0832,2.3226
18.9625,9.6411,2.3251
18.9667,10.2022,2.3278
18.9708,10.7615,2.3312
18.9750,11.3188,2.3352
18.9792,11.8946,2.3398
18.9833,12.4691,2.3434
18.9875,13.0553,2.3464
18.9917,13.6399,2.3502
18.9958,14.2279,2.3542
19.0000,14.8142,2.3589
19.0042,15.4218,2.3599
19.0083,16.0281,2.3646
19.0125,16.6357,2.3694
19.0167,17.2413,2.3751
19.0208,17.8450,2.3813
19.0250,18.4795,2.3825
19.0292,19.1128,2.3881
19.0333,19.7677,2.3900
19.0375,20.4213,2.3956
19.0417,21.0728,2.4015
19.0458,21.7223,2.4081
19.0500,22.4061,2.4068
19.0542,23.0887,2.4132
19.0583,23.7766,2.4190
19.0625,24.4626,2.4261
19.0667,25.1831,2.4230
19.0708,25.9024,2.4297
19.0750,26.6299,2.4354
19.0792,27.3556,2.4428
19.0833,28.0792,2.4508
19.0875,28.8445,2.4467
19.0917,29.6088,2.4538
19.0958,30.3998,2.4545
19.1000,31.1894,2.4613
19.1042,31.9939,2.4655
19.1083,32.7965,2.4728
19.1125,33.6361,2.4694
19.1167,34.4743,2.4762
19.1208,35.3311,2.4793
19.1250,36.1861,2.4863
19.1292,37.0800,2.4816
19.1333,37.9726,2.4879
19.1375,38.8849,2.4908
19.1417,39.7953,2.4973
19.1458,40.7525,2.4892
