Time (s),Pitch (deg),Velocity (m/s)
0.0000,4.4593,-0.0088
0.0042,4.4362,-0.0011
0.0083,4.4029,-0.0014
0.0125,4.3710,0.0022
0.0167,4.2589,0.0072
0.0208,4.1488,0.0186
0.0250,4.0049,0.0208
0.0292,3.8706,0.0257
0.0333,3.7250,0.0293
0.0375,3.5785,0.0336
0.0417,3.4270,0.0377
0.0458,3.2728,0.0419
0.0500,3.1154,0.0462
0.0542,2.9554,0.0504
0.0583,2.7931,0.0548
0.0625,2.6287,0.0591
0.0667,2.4626,0.0635
0.0708,2.2952,0.0680
0.0750,2.1267,0.0724
0.0792,1.9573,0.0769
0.0833,1.7876,0.0815
0.0875,1.6189,0.0868
0.0917,1.4476,0.0895
0.0958,1.2770,0.0925
0.1000,1.1065,0.0954
0.1042,0.9364,0.0985
0.1083,0.7667,0.1015
0.1125,0.5977,0.1047
0.1167,0.4294,0.1078
0.1208,0.2620,0.1110
0.1250,0.0956,0.1143
0.1292,-0.0696,0.1176
0.1333,-0.2336,0.1208
0.1375,-0.3960,0.1241
0.1417,-0.5564,0.1294
0.1458,-0.7178,0.1311
0.1500,-0.8783,0.1329
0.1542,-1.0380,0.1348
0.1583,-1.1967,0.1367
0.1625,-1.3544,0.1387
0.1667,-1.5110,0.1407
0.1708,-1.6663,0.1429
0.1750,-1.8203,0.1450
0.1792,-1.9728,0.1473
0.1833,-2.1237,0.1495
0.1875,-2.2730,0.1516
0.1917,-2.4211,0.1567
0.1958,-2.5698,0.1574
0.2000,-2.7180,0.1582
0.2042,-2.8655,0.1591
0.2083,-3.0123,0.1600
0.2125,-3.1582,0.1610
0.2167,-3.3032,0.1621
0.2208,-3.4471,0.1633
0.2250,-3.5898,0.1645
0.2292,-3.7312,0.1658
0.2333,-3.8712,0.1669
0.2375,-4.0110,0.1712
0.2417,-4.1517,0.1709
0.2458,-4.2922,0.1706
0.2500,-4.4324,0.1705
0.2542,-4.5723,0.1705
0.2583,-4.7117,0.1706
0.2625,-4.8504,0.1708
0.2667,-4.9885,0.1711
0.2708,-5.1257,0.1714
0.2750,-5.2620,0.1718
0.2792,-5.3971,0.1723
0.2833,-5.5311,0.1729
0.2875,-5.6663,0.1773
0.2917,-5.8027,0.1762
0.2958,-5.9393,0.1752
0.3000,-6.0757,0.1743
0.3042,-6.2120,0.1735
0.3083,-6.3479,0.1727
0.3125,-6.4834,0.1721
0.3167,-6.6183,0.1714
0.3208,-6.7525,0.1708
0.3250,-6.8858,0.1704
0.3292,-7.0182,0.1701
0.3333,-7.1495,0.1700
0.3375,-7.2832,0.1744
0.3417,-7.4190,0.1724
0.3458,-7.5546,0.1706
0.3500,-7.6902,0.1690
0.3542,-7.8254,0.1674
0.3583,-7.9602,0.1659
0.3625,-8.0943,0.1645
0.3667,-8.2277,0.1632
0.3708,-8.3602,0.1620
0.3750,-8.4917,0.1609
0.3792,-8.6221,0.1599
0.3833,-8.7550,0.1628
0.3875,-8.8904,0.1597
0.3917,-9.0247,0.1572
0.3958,-9.1583,0.1548
0.4000,-9.2907,0.1524
0.4042,-9.4220,0.1502
0.4083,-9.5517,0.1481
0.4125,-9.6799,0.1461
0.4167,-9.8062,0.1442
0.4208,-9.9306,0.1425
0.4250,-10.0530,0.1408
0.4292,-10.1732,0.1392
0.4333,-10.2912,0.1377
0.4375,-10.4113,0.1402
0.4417,-10.5355,0.1366
0.4458,-10.6546,0.1337
0.4500,-10.7709,0.1306
0.4542,-10.8832,0.1277
0.4583,-10.9916,0.1251
0.4625,-11.0960,0.1225
0.4667,-11.1962,0.1201
0.4708,-11.2922,0.1179
0.4750,-11.3839,0.1157
0.4792,-11.4712,0.1137
0.4833,-11.5540,0.1117
0.4875,-11.6324,0.1099
0.4917,-11.7064,0.1082
0.4958,-11.7759,0.1066
0.5000,-11.8412,0.1051
0.5042,-11.9061,0.1055
0.5083,-11.9736,0.1015
0.5125,-12.0251,0.0988
0.5167,-12.0730,0.0954
0.5208,-12.1074,0.0929
0.5250,-12.1364,0.0898
0.5292,-12.1530,0.0874
0.5333,-12.1635,0.0846
0.5375,-12.1621,0.0823
0.5417,-12.1550,0.0796
0.5458,-12.1360,0.0775
0.5500,-12.1122,0.0748
0.5542,-12.0763,0.0728
0.5583,-12.0370,0.0701
0.5625,-11.9850,0.0682
0.5667,-11.9314,0.0655
0.5708,-11.8642,0.0637
0.5750,-11.7973,0.0608
0.5792,-11.7158,0.0592
0.5833,-11.6367,0.0562
0.5875,-11.5418,0.0546
0.5917,-11.4512,0.0515
0.5958,-11.3442,0.0500
0.6000,-11.2424,0.0467
0.6042,-11.1247,0.0452
0.6083,-11.0119,0.0420
0.6125,-10.8848,0.0402
0.6167,-10.7613,0.0371
0.6208,-10.6259,0.0351
0.6250,-10.4921,0.0321
0.6292,-10.3493,0.0299
0.6333,-10.2060,0.0270
0.6375,-10.0562,0.0246
0.6417,-9.9033,0.0254
0.6458,-9.7596,0.0267
0.6500,-9.6221,0.0252
0.6542,-9.4797,0.0248
0.6583,-9.3417,0.0235
0.6625,-9.2003,0.0229
0.6667,-9.0620,0.0217
0.6708,-8.9214,0.0210
0.6750,-8.7829,0.0199
0.6792,-8.6429,0.0191
0.6833,-8.5042,0.0181
0.6875,-8.3646,0.0172
0.6917,-8.2259,0.0162
0.6958,-8.0865,0.0153
0.7000,-7.9476,0.0142
0.7042,-7.8084,0.0133
0.7083,-7.6694,0.0122
0.7125,-7.5302,0.0112
0.7167,-7.3910,0.0102
0.7208,-7.2517,0.0092
0.7250,-7.1123,0.0081
0.7292,-6.9728,0.0070
0.7333,-6.8331,0.0060
0.7375,-6.6933,0.0049
0.7417,-6.5533,0.0038
0.7458,-6.4131,0.0026
0.7500,-6.2727,0.0015
0.7542,-6.1299,0.0069
0.7583,-6.0147,0.0054
0.7625,-5.8834,0.0076
0.7667,-5.7725,0.0068
0.7708,-5.6512,0.0085
0.7750,-5.5462,0.0081
0.7792,-5.4342,0.0095
0.7833,-5.3360,0.0093
0.7875,-5.2327,0.0105
0.7917,-5.1417,0.0105
0.7958,-5.0468,0.0116
0.8000,-4.9634,0.0117
0.8042,-4.8768,0.0128
0.8083,-4.8012,0.0129
0.8125,-4.7227,0.0140
0.8167,-4.6548,0.0141
0.8208,-4.5842,0.0152
0.8250,-4.5242,0.0153
0.8292,-4.4611,0.0164
0.8333,-4.4088,0.0166
0.8375,-4.3531,0.0177
0.8417,-4.3085,0.0178
0.8458,-4.2600,0.0190
0.8500,-4.2228,0.0191
0.8542,-4.1812,0.0203
0.8583,-4.1514,0.0205
0.8625,-4.1165,0.0217
0.8667,-4.0940,0.0218
0.8708,-4.0656,0.0232
0.8750,-4.0501,0.0232
0.8792,-4.0280,0.0246
0.8833,-4.0194,0.0247
0.8875,-4.0035,0.0262
0.8917,-4.0016,0.0262
0.8958,-3.9918,0.0278
0.9000,-3.9963,0.0278
0.9042,-3.9925,0.0294
0.9083,-4.0033,0.0295
0.9125,-4.0055,0.0311
0.9167,-4.0222,0.0312
0.9208,-4.0305,0.0329
0.9250,-4.0529,0.0331
0.9292,-4.0672,0.0347
0.9333,-4.0950,0.0350
0.9375,-4.1154,0.0366
0.9417,-4.1484,0.0370
0.9458,-4.1749,0.0386
0.9500,-4.2128,0.0391
0.9542,-4.2454,0.0407
0.9583,-4.2880,0.0413
0.9625,-4.3267,0.0429
0.9667,-4.3740,0.0436
0.9708,-4.4185,0.0452
0.9750,-4.4703,0.0460
0.9792,-4.5205,0.0475
0.9833,-4.5768,0.0485
0.9875,-4.6326,0.0500
0.9917,-4.6933,0.0512
0.9958,-4.7543,0.0526
1.0000,-4.8194,0.0539
1.0042,-4.8868,0.0533
1.0083,-4.9488,0.0550
1.0125,-5.0199,0.0540
1.0167,-5.0807,0.0543
1.0208,-5.1456,0.0537
1.0250,-5.2040,0.0538
1.0292,-5.2642,0.0534
1.0333,-5.3200,0.0535
1.0375,-5.3764,0.0533
1.0417,-5.4298,0.0533
1.0458,-5.4832,0.0532
1.0500,-5.5344,0.0533
1.0542,-5.5854,0.0533
1.0583,-5.6347,0.0534
1.0625,-5.6838,0.0535
1.0667,-5.7317,0.0537
1.0708,-5.7794,0.0538
1.0750,-5.8262,0.0541
1.0792,-5.8730,0.0543
1.0833,-5.9191,0.0546
1.0875,-5.9653,0.0549
1.0917,-6.0113,0.0552
1.0958,-6.0573,0.0555
1.1000,-6.1033,0.0559
1.1042,-6.1496,0.0564
1.1083,-6.1961,0.0568
1.1125,-6.2429,0.0573
1.1167,-6.2901,0.0578
1.1208,-6.3378,0.0584
1.1250,-6.3861,0.0589
1.1292,-6.4350,0.0595
1.1333,-6.4845,0.0602
1.1375,-6.5349,0.0608
1.1417,-6.5860,0.0616
1.1458,-6.6380,0.0623
1.1500,-6.6931,0.0631
1.1542,-6.7500,0.0617
1.1583,-6.7983,0.0611
1.1625,-6.8465,0.0600
1.1667,-6.8879,0.0593
1.1708,-6.9284,0.0584
1.1750,-6.9632,0.0577
1.1792,-6.9966,0.0569
1.1833,-7.0252,0.0563
1.1875,-7.0523,0.0555
1.1917,-7.0752,0.0550
1.1958,-7.0967,0.0543
1.2000,-7.1144,0.0539
1.2042,-7.1309,0.0532
1.2083,-7.1439,0.0528
1.2125,-7.1560,0.0522
1.2167,-7.1650,0.0519
1.2208,-7.1733,0.0514
1.2250,-7.1787,0.0510
1.2292,-7.1836,0.0506
1.2333,-7.1859,0.0503
1.2375,-7.1880,0.0499
1.2417,-7.1877,0.0497
1.2458,-7.1875,0.0493
1.2500,-7.1849,0.0491
1.2542,-7.1828,0.0488
1.2583,-7.1785,0.0486
1.2625,-7.1749,0.0483
1.2667,-7.1691,0.0483
1.2708,-7.1645,0.0480
1.2750,-7.1576,0.0480
1.2792,-7.1523,0.0477
1.2833,-7.1446,0.0478
1.2875,-7.1390,0.0475
1.2917,-7.1309,0.0476
1.2958,-7.1252,0.0474
1.3000,-7.1170,0.0476
1.3042,-7.1117,0.0474
1.3083,-7.1035,0.0476
1.3125,-7.0990,0.0474
1.3167,-7.0911,0.0478
1.3208,-7.0876,0.0475
1.3250,-7.0802,0.0480
1.3292,-7.0781,0.0477
1.3333,-7.0714,0.0483
1.3375,-7.0709,0.0480
1.3417,-7.0652,0.0487
1.3458,-7.0666,0.0484
1.3500,-7.0620,0.0492
1.3542,-7.0657,0.0488
1.3583,-7.0622,0.0498
1.3625,-7.0685,0.0493
1.3667,-7.0663,0.0505
1.3708,-7.0756,0.0499
1.3750,-7.0746,0.0512
1.3792,-7.0872,0.0506
1.3833,-7.0877,0.0521
1.3875,-7.1039,0.0513
1.3917,-7.1058,0.0531
1.3958,-7.1258,0.0522
1.4000,-7.1292,0.0543
1.4042,-7.1554,0.0523
1.4083,-7.1578,0.0524
1.4125,-7.1739,0.0501
1.4167,-7.1682,0.0501
1.4208,-7.1753,0.0479
1.4250,-7.1617,0.0479
1.4292,-7.1608,0.0458
1.4333,-7.1397,0.0458
1.4375,-7.1316,0.0437
1.4417,-7.1033,0.0438
1.4458,-7.0888,0.0417
1.4500,-7.0537,0.0419
1.4542,-7.0333,0.0397
1.4583,-6.9919,0.0400
1.4625,-6.9663,0.0378
1.4667,-6.9190,0.0381
1.4708,-6.8885,0.0359
1.4750,-6.8357,0.0363
1.4792,-6.8008,0.0340
1.4833,-6.7430,0.0345
1.4875,-6.7039,0.0322
1.4917,-6.6415,0.0327
1.4958,-6.5983,0.0304
1.5000,-6.5318,0.0309
1.5042,-6.4847,0.0286
1.5083,-6.4146,0.0291
1.5125,-6.3636,0.0268
1.5167,-6.2903,0.0273
1.5208,-6.2354,0.0251
1.5250,-6.1594,0.0255
1.5292,-6.1006,0.0234
1.5333,-6.0205,0.0271
1.5375,-5.9788,0.0254
1.5417,-5.9057,0.0293
1.5458,-5.8778,0.0266
1.5500,-5.8079,0.0314
1.5542,-5.7952,0.0278
1.5583,-5.7266,0.0337
1.5625,-5.7238,0.0288
1.5667,-5.6577,0.0360
1.5708,-5.6586,0.0299
1.5750,-5.5989,0.0381
1.5792,-5.6064,0.0316
1.5833,-5.5550,0.0401
1.5875,-5.5703,0.0337
1.5917,-5.5280,0.0421
1.5958,-5.5703,0.0350
1.6000,-5.5337,0.0409
1.6042,-5.5702,0.0349
1.6083,-5.5417,0.0393
1.6125,-5.5646,0.0344
1.6167,-5.5263,0.0375
1.6208,-5.5443,0.0334
1.6250,-5.5034,0.0365
1.6292,-5.5175,0.0324
1.6333,-5.4741,0.0354
1.6375,-5.4848,0.0314
1.6417,-5.4389,0.0345
1.6458,-5.4467,0.0305
1.6500,-5.3985,0.0336
1.6542,-5.4038,0.0297
1.6583,-5.3536,0.0327
1.6625,-5.3567,0.0288
1.6667,-5.3046,0.0319
1.6708,-5.3059,0.0280
1.6750,-5.2522,0.0311
1.6792,-5.2518,0.0273
1.6833,-5.1967,0.0303
1.6875,-5.1948,0.0266
1.6917,-5.1385,0.0296
1.6958,-5.1354,0.0259
1.7000,-5.0782,0.0289
1.7042,-5.0739,0.0252
1.7083,-5.0159,0.0283
1.7125,-5.0106,0.0246
1.7167,-4.9521,0.0276
1.7208,-4.9458,0.0240
1.7250,-4.8870,0.0270
1.7292,-4.8799,0.0235
1.7333,-4.8210,0.0264
1.7375,-4.8131,0.0230
1.7417,-4.7542,0.0259
1.7458,-4.7456,0.0225
1.7500,-4.6869,0.0253
1.7542,-4.6776,0.0220
1.7583,-4.6192,0.0248
1.7625,-4.6094,0.0215
1.7667,-4.5515,0.0243
1.7708,-4.5411,0.0211
1.7750,-4.4838,0.0238
1.7792,-4.4730,0.0207
1.7833,-4.4150,0.0256
1.7875,-4.4185,0.0213
1.7917,-4.3579,0.0278
1.7958,-4.3778,0.0218
1.8000,-4.3139,0.0299
1.8042,-4.3421,0.0226
1.8083,-4.2910,0.0311
1.8125,-4.3288,0.0245
1.8167,-4.3004,0.0305
1.8208,-4.3217,0.0253
1.8250,-4.2804,0.0291
1.8292,-4.3002,0.0252
1.8333,-4.2600,0.0288
1.8375,-4.2785,0.0251
1.8417,-4.2396,0.0286
1.8458,-4.2570,0.0251
1.8500,-4.2194,0.0285
1.8542,-4.2360,0.0251
1.8583,-4.1997,0.0284
1.8625,-4.2158,0.0252
1.8667,-4.1810,0.0284
1.8708,-4.1966,0.0253
1.8750,-4.1635,0.0284
1.8792,-4.1789,0.0254
1.8833,-4.1474,0.0284
1.8875,-4.1628,0.0256
1.8917,-4.1331,0.0285
1.8958,-4.1487,0.0258
1.9000,-4.1209,0.0287
1.9042,-4.1367,0.0261
1.9083,-4.1109,0.0289
1.9125,-4.1272,0.0265
1.9167,-4.1036,0.0291
1.9208,-4.1203,0.0268
1.9250,-4.0990,0.0294
1.9292,-4.1164,0.0273
1.9333,-4.0975,0.0298
1.9375,-4.1157,0.0278
1.9417,-4.0993,0.0302
1.9458,-4.1184,0.0283
1.9500,-4.1047,0.0307
1.9542,-4.1248,0.0289
1.9583,-4.1140,0.0312
1.9625,-4.1351,0.0296
1.9667,-4.1273,0.0318
1.9708,-4.1496,0.0303
1.9750,-4.1449,0.0325
1.9792,-4.1685,0.0312
1.9833,-4.1670,0.0332
1.9875,-4.1921,0.0320
1.9917,-4.1940,0.0340
1.9958,-4.2205,0.0330
2.0000,-4.2260,0.0349
2.0042,-4.2541,0.0340
2.0083,-4.2632,0.0358
2.0125,-4.2930,0.0351
2.0167,-4.3060,0.0369
2.0208,-4.3376,0.0363
2.0250,-4.3545,0.0380
2.0292,-4.3881,0.0376
2.0333,-4.4089,0.0392
2.0375,-4.4446,0.0389
2.0417,-4.4696,0.0404
2.0458,-4.5074,0.0404
2.0500,-4.5365,0.0418
2.0542,-4.5768,0.0419
2.0583,-4.6100,0.0433
2.0625,-4.6528,0.0436
2.0667,-4.6903,0.0449
2.0708,-4.7358,0.0453
2.0750,-4.7773,0.0466
2.0792,-4.8257,0.0471
2.0833,-4.8714,0.0484
2.0875,-4.9228,0.0490
2.0917,-4.9726,0.0503
2.0958,-5.0271,0.0511
2.1000,-5.0810,0.0523
2.1042,-5.1387,0.0532
2.1083,-5.1966,0.0544
2.1125,-5.2577,0.0555
2.1167,-5.3194,0.0567
2.1208,-5.3839,0.0578
2.1250,-5.4494,0.0591
2.1292,-5.5192,0.0605
2.1333,-5.5919,0.0596
2.1375,-5.6580,0.0594
2.1417,-5.7245,0.0588
2.1458,-5.7865,0.0586
2.1500,-5.8478,0.0582
2.1542,-5.9058,0.0580
2.1583,-5.9628,0.0577
2.1625,-6.0171,0.0575
2.1667,-6.0702,0.0573
2.1708,-6.1212,0.0572
2.1750,-6.1712,0.0571
2.1792,-6.2194,0.0571
2.1833,-6.2667,0.0570
2.1875,-6.3127,0.0570
2.1917,-6.3578,0.0570
2.1958,-6.4019,0.0571
2.2000,-6.4454,0.0572
2.2042,-6.4881,0.0574
2.2083,-6.5303,0.0575
2.2125,-6.5721,0.0577
2.2167,-6.6136,0.0580
2.2208,-6.6548,0.0582
2.2250,-6.6960,0.0585
2.2292,-6.7370,0.0588
2.2333,-6.7782,0.0592
2.2375,-6.8195,0.0596
2.2417,-6.8610,0.0600
2.2458,-6.9029,0.0605
2.2500,-6.9452,0.0610
2.2542,-6.9880,0.0615
2.2583,-7.0314,0.0620
2.2625,-7.0775,0.0623
2.2667,-7.1236,0.0609
2.2708,-7.1614,0.0600
2.2750,-7.1979,0.0587
2.2792,-7.2274,0.0579
2.2833,-7.2553,0.0567
2.2875,-7.2769,0.0559
2.2917,-7.2968,0.0549
2.2958,-7.3111,0.0541
2.3000,-7.3237,0.0531
2.3042,-7.3311,0.0524
2.3083,-7.3371,0.0514
2.3125,-7.3382,0.0508
2.3167,-7.3382,0.0499
2.3208,-7.3337,0.0493
2.3250,-7.3283,0.0484
2.3292,-7.3185,0.0479
2.3333,-7.3083,0.0470
2.3375,-7.2939,0.0465
2.3417,-7.2794,0.0457
2.3458,-7.2607,0.0453
2.3500,-7.2424,0.0445
2.3542,-7.2199,0.0441
2.3583,-7.1982,0.0433
2.3625,-7.1723,0.0429
2.3667,-7.1477,0.0422
2.3708,-7.1187,0.0419
2.3750,-7.0916,0.0411
2.3792,-7.0598,0.0408
2.3833,-7.0306,0.0401
2.3875,-6.9964,0.0399
2.3917,-6.9652,0.0391
2.3958,-6.9288,0.0390
2.4000,-6.8962,0.0382
2.4042,-6.8578,0.0381
2.4083,-6.8240,0.0373
2.4125,-6.7839,0.0373
2.4167,-6.7490,0.0364
2.4208,-6.7075,0.0365
2.4250,-6.6719,0.0356
2.4292,-6.6290,0.0357
2.4333,-6.5929,0.0349
2.4375,-6.5489,0.0350
2.4417,-6.5125,0.0341
2.4458,-6.4675,0.0344
2.4500,-6.4311,0.0334
2.4542,-6.3852,0.0337
2.4583,-6.3489,0.0328
2.4625,-6.3023,0.0332
2.4667,-6.2663,0.0321
2.4708,-6.2191,0.0326
2.4750,-6.1835,0.0315
2.4792,-6.1360,0.0321
2.4833,-6.1009,0.0310
2.4875,-6.0530,0.0316
2.4917,-6.0187,0.0305
2.4958,-5.9706,0.0312
2.5000,-5.9371,0.0300
2.5042,-5.8889,0.0308
2.5083,-5.8563,0.0295
2.5125,-5.8081,0.0304
2.5167,-5.7766,0.0291
2.5208,-5.7285,0.0300
2.5250,-5.6982,0.0287
2.5292,-5.6503,0.0297
2.5333,-5.6212,0.0283
2.5375,-5.5736,0.0295
2.5417,-5.5458,0.0280
2.5458,-5.4986,0.0292
2.5500,-5.4723,0.0277
2.5542,-5.4255,0.0290
2.5583,-5.4007,0.0275
2.5625,-5.3544,0.0288
2.5667,-5.3312,0.0273
2.5708,-5.2856,0.0287
2.5750,-5.2641,0.0271
2.5792,-5.2192,0.0286
2.5833,-5.1994,0.0269
2.5875,-5.1552,0.0285
2.5917,-5.1372,0.0268
2.5958,-5.0939,0.0285
2.6000,-5.0778,0.0268
2.6042,-5.0355,0.0285
2.6083,-5.0213,0.0267
2.6125,-4.9800,0.0286
2.6167,-4.9678,0.0268
2.6208,-4.9276,0.0287
2.6250,-4.9175,0.0268
2.6292,-4.8785,0.0288
2.6333,-4.8704,0.0269
2.6375,-4.8328,0.0290
2.6417,-4.8269,0.0270
2.6458,-4.7906,0.0292
2.6500,-4.7869,0.0272
2.6542,-4.7521,0.0294
2.6583,-4.7507,0.0275
2.6625,-4.7175,0.0297
2.6667,-4.7184,0.0277
2.6708,-4.6869,0.0301
2.6750,-4.6901,0.0281
2.6792,-4.6605,0.0305
2.6833,-4.6661,0.0285
2.6875,-4.6384,0.0309
2.6917,-4.6464,0.0289
2.6958,-4.6208,0.0314
2.7000,-4.6313,0.0294
2.7042,-4.6080,0.0320
2.7083,-4.6209,0.0300
2.7125,-4.6000,0.0326
2.7167,-4.6153,0.0306
2.7208,-4.5970,0.0332
2.7250,-4.6148,0.0313
2.7292,-4.5994,0.0340
2.7333,-4.6196,0.0321
2.7375,-4.6071,0.0347
2.7417,-4.6297,0.0329
2.7458,-4.6205,0.0356
2.7500,-4.6455,0.0339
2.7542,-4.6397,0.0365
2.7583,-4.6671,0.0349
2.7625,-4.6650,0.0375
2.7667,-4.6947,0.0360
2.7708,-4.6965,0.0385
2.7750,-4.7285,0.0371
2.7792,-4.7344,0.0396
2.7833,-4.7687,0.0384
2.7875,-4.7790,0.0408
2.7917,-4.8155,0.0398
2.7958,-4.8303,0.0421
2.8000,-4.8690,0.0412
2.8042,-4.8886,0.0434
2.8083,-4.9296,0.0428
2.8125,-4.9539,0.0449
2.8167,-4.9973,0.0445
2.8208,-5.0265,0.0464
2.8250,-5.0723,0.0462
2.8292,-5.1064,0.0481
2.8333,-5.1547,0.0481
2.8375,-5.1938,0.0498
2.8417,-5.2446,0.0500
2.8458,-5.2886,0.0517
2.8500,-5.3422,0.0521
2.8542,-5.3909,0.0537
2.8583,-5.4474,0.0543
2.8625,-5.5007,0.0558
2.8667,-5.5603,0.0566
2.8708,-5.6199,0.0578
2.8750,-5.6841,0.0567
2.8792,-5.7398,0.0566
2.8833,-5.7972,0.0558
2.8875,-5.8485,0.0556
2.8917,-5.9001,0.0550
2.8958,-5.9472,0.0547
2.9000,-5.9939,0.0543
2.9042,-6.0370,0.0541
2.9083,-6.0794,0.0537
2.9125,-6.1189,0.0535
2.9167,-6.1577,0.0532
2.9208,-6.1941,0.0531
2.9250,-6.2297,0.0529
2.9292,-6.2634,0.0528
2.9333,-6.2966,0.0527
2.9375,-6.3280,0.0527
2.9417,-6.3592,0.0526
2.9458,-6.3889,0.0526
2.9500,-6.4185,0.0526
2.9542,-6.4470,0.0527
2.9583,-6.4754,0.0528
2.9625,-6.5030,0.0529
2.9667,-6.5307,0.0530
2.9708,-6.5579,0.0532
2.9750,-6.5853,0.0534
2.9792,-6.6123,0.0536
2.9833,-6.6398,0.0538
2.9875,-6.6672,0.0541
2.9917,-6.6950,0.0544
2.9958,-6.7230,0.0548
3.0000,-6.7516,0.0551
3.0042,-6.7805,0.0555
3.0083,-6.8102,0.0559
3.0125,-6.8403,0.0564
3.0167,-6.8713,0.0568
3.0208,-6.9029,0.0573
3.0250,-6.9355,0.0578
3.0292,-6.9688,0.0584
3.0333,-7.0034,0.0590
3.0375,-7.0407,0.0591
3.0417,-7.0775,0.0578
3.0458,-7.1064,0.0569
3.0500,-7.1340,0.0557
3.0542,-7.1548,0.0549
3.0583,-7.1741,0.0537
3.0625,-7.1873,0.0529
3.0667,-7.1990,0.0519
3.0708,-7.2050,0.0511
3.0750,-7.2098,0.0501
3.0792,-7.2092,0.0495
3.0833,-7.2077,0.0485
3.0875,-7.2011,0.0478
3.0917,-7.1939,0.0469
3.0958,-7.1818,0.0463
3.1000,-7.1695,0.0454
3.1042,-7.1524,0.0449
3.1083,-7.1355,0.0440
3.1125,-7.1139,0.0435
3.1167,-7.0928,0.0427
3.1208,-7.0671,0.0422
3.1250,-7.0423,0.0414
3.1292,-7.0128,0.0409
3.1333,-6.9848,0.0401
3.1375,-6.9520,0.0397
3.1417,-6.9211,0.0389
3.1458,-6.8852,0.0386
3.1500,-6.8517,0.0377
3.1542,-6.8131,0.0374
3.1583,-6.7774,0.0366
3.1625,-6.7363,0.0364
3.1667,-6.6986,0.0355
3.1708,-6.6553,0.0353
3.1750,-6.6160,0.0345
3.1792,-6.5706,0.0343
3.1833,-6.5299,0.0334
3.1875,-6.4826,0.0333
3.1917,-6.4407,0.0324
3.1958,-6.3919,0.0324
3.2000,-6.3489,0.0315
3.2042,-6.2987,0.0315
3.2083,-6.2548,0.0306
3.2125,-6.2033,0.0306
3.2167,-6.1587,0.0296
3.2208,-6.1062,0.0297
3.2250,-6.0610,0.0288
3.2292,-6.0075,0.0289
3.2333,-5.9618,0.0279
3.2375,-5.9075,0.0281
3.2417,-5.8613,0.0271
3.2458,-5.8065,0.0272
3.2500,-5.7599,0.0263
3.2542,-5.7046,0.0265
3.2583,-5.6578,0.0255
3.2625,-5.6020,0.0257
3.2667,-5.5549,0.0247
3.2708,-5.4989,0.0249
3.2750,-5.4517,0.0240
3.2792,-5.3955,0.0242
3.2833,-5.3481,0.0232
3.2875,-5.2919,0.0234
3.2917,-5.2443,0.0225
3.2958,-5.1881,0.0227
3.3000,-5.1405,0.0218
3.3042,-5.0844,0.0220
3.3083,-5.0366,0.0211
3.3125,-4.9807,0.0213
3.3167,-4.9329,0.0204
3.3208,-4.8772,0.0206
3.3250,-4.8293,0.0198
3.3292,-4.7739,0.0199
3.3333,-4.7259,0.0191
3.3375,-4.6692,0.0222
3.3417,-4.6389,0.0222
3.3458,-4.5943,0.0253
3.3500,-4.5789,0.0248
3.3542,-4.5432,0.0283
3.3583,-4.5429,0.0273
3.3625,-4.5153,0.0314
3.3667,-4.5314,0.0279
3.3708,-4.4986,0.0332
3.3750,-4.5289,0.0291
3.3792,-4.4968,0.0327
3.3833,-4.5239,0.0289
3.3875,-4.4926,0.0323
3.3917,-4.5170,0.0287
3.3958,-4.4865,0.0320
3.4000,-4.5088,0.0286
3.4042,-4.4789,0.0317
3.4083,-4.4995,0.0285
3.4125,-4.4705,0.0315
3.4167,-4.4897,0.0284
3.4208,-4.4616,0.0313
3.4250,-4.4797,0.0284
3.4292,-4.4526,0.0313
3.4333,-4.4699,0.0285
3.4375,-4.4440,0.0312
3.4417,-4.4608,0.0286
3.4458,-4.4361,0.0313
3.4500,-4.4527,0.0287
3.4542,-4.4293,0.0313
3.4583,-4.4458,0.0289
3.4625,-4.4239,0.0315
3.4667,-4.4407,0.0292
3.4708,-4.4204,0.0317
3.4750,-4.4375,0.0295
3.4792,-4.4191,0.0319
3.4833,-4.4366,0.0299
3.4875,-4.4201,0.0323
3.4917,-4.4384,0.0303
3.4958,-4.4240,0.0326
3.5000,-4.4431,0.0308
3.5042,-4.4310,0.0331
3.5083,-4.4510,0.0314
3.5125,-4.4413,0.0336
3.5167,-4.4624,0.0320
3.5208,-4.4554,0.0342
3.5250,-4.4776,0.0327
3.5292,-4.4734,0.0348
3.5333,-4.4970,0.0334
3.5375,-4.4957,0.0355
3.5417,-4.5207,0.0343
3.5458,-4.5225,0.0363
3.5500,-4.5491,0.0352
3.5542,-4.5542,0.0371
3.5583,-4.5824,0.0362
3.5625,-4.5910,0.0381
3.5667,-4.6209,0.0373
3.5708,-4.6331,0.0391
3.5750,-4.6649,0.0384
3.5792,-4.6809,0.0402
3.5833,-4.7146,0.0397
3.5875,-4.7345,0.0414
3.5917,-4.7703,0.0410
3.5958,-4.7942,0.0426
3.6000,-4.8322,0.0425
3.6042,-4.8602,0.0440
3.6083,-4.9006,0.0440
3.6125,-4.9327,0.0455
3.6167,-4.9756,0.0456
3.6208,-5.0119,0.0471
3.6250,-5.0574,0.0474
3.6292,-5.0979,0.0487
3.6333,-5.1462,0.0492
3.6375,-5.1909,0.0505
3.6417,-5.2421,0.0511
3.6458,-5.2909,0.0524
3.6500,-5.3452,0.0532
3.6542,-5.3981,0.0544
3.6583,-5.4555,0.0553
3.6625,-5.5125,0.0566
3.6667,-5.5731,0.0576
3.6708,-5.6359,0.0588
3.6750,-5.7021,0.0578
3.6792,-5.7608,0.0576
3.6833,-5.8203,0.0568
3.6875,-5.8744,0.0566
3.6917,-5.9283,0.0560
3.6958,-5.9781,0.0558
3.7000,-6.0271,0.0553
3.7042,-6.0729,0.0551
3.7083,-6.1177,0.0548
3.7125,-6.1598,0.0546
3.7167,-6.2010,0.0543
3.7208,-6.2400,0.0542
3.7250,-6.2781,0.0540
3.7292,-6.3144,0.0540
3.7333,-6.3500,0.0539
3.7375,-6.3842,0.0538
3.7417,-6.4178,0.0538
3.7458,-6.4502,0.0538
3.7500,-6.4821,0.0539
3.7542,-6.5132,0.0539
3.7583,-6.5441,0.0540
3.7625,-6.5743,0.0542
3.7667,-6.6045,0.0543
3.7708,-6.6344,0.0545
3.7750,-6.6642,0.0547
3.7792,-6.6940,0.0550
3.7833,-6.7240,0.0552
3.7875,-6.7541,0.0556
3.7917,-6.7846,0.0559
3.7958,-6.8153,0.0562
3.8000,-6.8465,0.0566
3.8042,-6.8782,0.0571
3.8083,-6.9106,0.0575
3.8125,-6.9435,0.0580
3.8167,-6.9772,0.0585
3.8208,-7.0117,0.0590
3.8250,-7.0471,0.0596
3.8292,-7.0854,0.0597
3.8333,-7.1229,0.0583
3.8375,-7.1526,0.0574
3.8417,-7.1808,0.0562
3.8458,-7.2023,0.0554
3.8500,-7.2221,0.0542
3.8542,-7.2357,0.0534
3.8583,-7.2478,0.0523
3.8625,-7.2542,0.0516
3.8667,-7.2591,0.0505
3.8708,-7.2588,0.0498
3.8750,-7.2573,0.0489
3.8792,-7.2509,0.0482
3.8833,-7.2436,0.0473
3.8875,-7.2315,0.0466
3.8917,-7.2189,0.0457
3.8958,-7.2017,0.0452
3.9000,-7.1845,0.0443
3.9042,-7.1626,0.0437
3.9083,-7.1411,0.0429
3.9125,-7.1150,0.0424
3.9167,-7.0897,0.0415
3.9208,-7.0598,0.0411
3.9250,-7.0311,0.0403
3.9292,-6.9977,0.0399
3.9333,-6.9660,0.0390
3.9375,-6.9295,0.0387
3.9417,-6.8952,0.0378
3.9458,-6.8558,0.0375
3.9500,-6.8192,0.0366
3.9542,-6.7771,0.0364
3.9583,-6.7386,0.0355
3.9625,-6.6942,0.0353
3.9667,-6.6538,0.0344
3.9708,-6.6073,0.0343
3.9750,-6.5655,0.0334
3.9792,-6.5171,0.0333
3.9833,-6.4739,0.0323
3.9875,-6.4238,0.0323
3.9917,-6.3795,0.0313
3.9958,-6.3279,0.0313
4.0000,-6.2827,0.0304
4.0042,-6.2297,0.0304
4.0083,-6.1836,0.0294
4.0125,-6.1295,0.0295
4.0167,-6.0827,0.0285
4.0208,-6.0276,0.0286
4.0250,-5.9801,0.0276
4.0292,-5.9242,0.0277
4.0333,-5.8762,0.0267
4.0375,-5.8196,0.0268
4.0417,-5.7710,0.0259
4.0458,-5.7139,0.0260
4.0500,-5.6649,0.0250
4.0542,-5.6073,0.0251
4.0583,-5.5579,0.0242
4.0625,-5.5000,0.0243
4.0667,-5.4503,0.0234
4.0708,-5.3921,0.0235
4.0750,-5.3421,0.0226
4.0792,-5.2838,0.0227
4.0833,-5.2334,0.0218
4.0875,-5.1751,0.0219
4.0917,-5.1245,0.0210
4.0958,-5.0662,0.0211
4.1000,-5.0153,0.0203
4.1042,-4.9571,0.0204
4.1083,-4.9059,0.0195
4.1125,-4.8479,0.0196
4.1167,-4.7948,0.0217
4.1208,-4.7538,0.0229
4.1250,-4.7150,0.0245
4.1292,-4.6864,0.0255
4.1333,-4.6588,0.0273
4.1375,-4.6425,0.0282
4.1417,-4.6257,0.0301
4.1458,-4.6213,0.0309
4.1500,-4.6149,0.0330
4.1542,-4.6236,0.0321
4.1583,-4.6183,0.0327
4.1625,-4.6251,0.0317
4.1667,-4.6186,0.0323
4.1708,-4.6237,0.0314
4.1750,-4.6163,0.0320
4.1792,-4.6199,0.0311
4.1833,-4.6119,0.0317
4.1875,-4.6145,0.0309
4.1917,-4.6059,0.0315
4.1958,-4.6077,0.0308
4.2000,-4.5988,0.0313
4.2042,-4.6001,0.0306
4.2083,-4.5912,0.0312
4.2125,-4.5922,0.0306
4.2167,-4.5834,0.0312
4.2208,-4.5843,0.0306
4.2250,-4.5758,0.0312
4.2292,-4.5769,0.0306
4.2333,-4.5689,0.0313
4.2375,-4.5703,0.0307
4.2417,-4.5631,0.0314
4.2458,-4.5650,0.0309
4.2500,-4.5586,0.0316
4.2542,-4.5613,0.0311
4.2583,-4.5559,0.0318
4.2625,-4.5596,0.0314
4.2667,-4.5554,0.0321
4.2708,-4.5601,0.0318
4.2750,-4.5573,0.0325
4.2792,-4.5633,0.0322
4.2833,-4.5620,0.0329
4.2875,-4.5693,0.0326
4.2917,-4.5698,0.0334
4.2958,-4.5787,0.0332
4.3000,-4.5810,0.0339
4.3042,-4.5916,0.0338
4.3083,-4.5960,0.0346
4.3125,-4.6084,0.0344
4.3167,-4.6149,0.0353
4.3208,-4.6293,0.0352
4.3250,-4.6382,0.0360
4.3292,-4.6547,0.0360
4.3333,-4.6661,0.0369
4.3375,-4.6848,0.0369
4.3417,-4.6988,0.0378
4.3458,-4.7199,0.0379
4.3500,-4.7368,0.0388
4.3542,-4.7603,0.0390
4.3583,-4.7802,0.0399
4.3625,-4.8063,0.0401
4.3667,-4.8292,0.0410
4.3708,-4.8581,0.0414
4.3750,-4.8842,0.0423
4.3792,-4.9159,0.0427
4.3833,-4.9454,0.0436
4.3875,-4.9800,0.0441
4.3917,-5.0130,0.0451
4.3958,-5.0507,0.0456
4.4000,-5.0872,0.0466
4.4042,-5.1280,0.0473
4.4083,-5.1682,0.0483
4.4125,-5.2121,0.0490
4.4167,-5.2560,0.0500
4.4208,-5.3033,0.0508
4.4250,-5.3509,0.0519
4.4292,-5.4016,0.0528
4.4333,-5.4530,0.0539
4.4375,-5.5071,0.0548
4.4417,-5.5622,0.0560
4.4458,-5.6198,0.0570
4.4500,-5.6805,0.0580
4.4542,-5.7432,0.0571
4.4583,-5.7992,0.0567
4.4625,-5.8553,0.0560
4.4667,-5.9065,0.0557
4.4708,-5.9569,0.0551
4.4750,-6.0034,0.0548
4.4792,-6.0489,0.0544
4.4833,-6.0912,0.0541
4.4875,-6.1324,0.0537
4.4917,-6.1707,0.0535
4.4958,-6.2081,0.0532
4.5000,-6.2432,0.0530
4.5042,-6.2774,0.0528
4.5083,-6.3097,0.0527
4.5125,-6.3412,0.0525
4.5167,-6.3712,0.0525
4.5208,-6.4005,0.0524
4.5250,-6.4286,0.0524
4.5292,-6.4563,0.0523
4.5333,-6.4829,0.0524
4.5375,-6.5093,0.0524
4.5417,-6.5350,0.0525
4.5458,-6.5606,0.0526
4.5500,-6.5856,0.0527
4.5542,-6.6107,0.0529
4.5583,-6.6356,0.0531
4.5625,-6.6607,0.0533
4.5667,-6.6857,0.0535
4.5708,-6.7111,0.0538
4.5750,-6.7365,0.0541
4.5792,-6.7626,0.0544
4.5833,-6.7889,0.0547
4.5875,-6.8159,0.0551
4.5917,-6.8433,0.0555
4.5958,-6.8715,0.0559
4.6000,-6.9003,0.0564
4.6042,-6.9301,0.0569
4.6083,-6.9605,0.0574
4.6125,-6.9921,0.0579
4.6167,-7.0245,0.0585
4.6208,-7.0601,0.0586
4.6250,-7.0943,0.0573
4.6292,-7.1213,0.0564
4.6333,-7.1465,0.0551
4.6375,-7.1652,0.0543
4.6417,-7.1820,0.0531
4.6458,-7.1930,0.0523
4.6500,-7.2022,0.0513
4.6542,-7.2059,0.0505
4.6583,-7.2081,0.0495
4.6625,-7.2052,0.0487
4.6667,-7.2010,0.0478
4.6708,-7.1920,0.0471
4.6750,-7.1821,0.0462
4.6792,-7.1675,0.0455
4.6833,-7.1524,0.0446
4.6875,-7.1327,0.0440
4.6917,-7.1129,0.0431
4.6958,-7.0886,0.0426
4.7000,-7.0645,0.0417
4.7042,-7.0360,0.0412
4.7083,-7.0082,0.0404
4.7125,-6.9759,0.0399
4.7167,-6.9446,0.0390
4.7208,-6.9089,0.0386
4.7250,-6.8746,0.0377
4.7292,-6.8356,0.0373
4.7333,-6.7986,0.0365
4.7375,-6.7568,0.0361
4.7417,-6.7174,0.0353
4.7458,-6.6731,0.0350
4.7500,-6.6315,0.0341
4.7542,-6.5848,0.0338
4.7583,-6.5414,0.0330
4.7625,-6.4926,0.0327
4.7667,-6.4475,0.0319
4.7708,-6.3967,0.0316
4.7750,-6.3501,0.0308
4.7792,-6.2977,0.0306
4.7833,-6.2497,0.0297
4.7875,-6.1958,0.0295
4.7917,-6.1466,0.0287
4.7958,-6.0913,0.0285
4.8000,-6.0411,0.0276
4.8042,-5.9846,0.0275
4.8083,-5.9334,0.0266
4.8125,-5.8759,0.0265
4.8167,-5.8237,0.0256
4.8208,-5.7654,0.0255
4.8250,-5.7123,0.0247
4.8292,-5.6532,0.0246
4.8333,-5.5994,0.0237
4.8375,-5.5396,0.0236
4.8417,-5.4851,0.0228
4.8458,-5.4247,0.0226
4.8500,-5.3695,0.0218
4.8542,-5.3087,0.0217
4.8583,-5.2528,0.0209
4.8625,-5.1916,0.0207
4.8667,-5.1350,0.0200
4.8708,-5.0735,0.0198
4.8750,-5.0156,0.0199
4.8792,-4.9573,0.0227
4.8833,-4.9193,0.0228
4.8875,-4.8711,0.0253
4.8917,-4.8466,0.0251
4.8958,-4.8074,0.0280
4.9000,-4.7967,0.0274
4.9042,-4.7656,0.0308
4.9083,-4.7689,0.0298
4.9125,-4.7451,0.0338
4.9167,-4.7624,0.0323
4.9208,-4.7469,0.0346
4.9250,-4.7653,0.0322
4.9292,-4.7494,0.0340
4.9333,-4.7647,0.0318
4.9375,-4.7480,0.0335
4.9417,-4.7607,0.0314
4.9458,-4.7432,0.0330
4.9500,-4.7537,0.0310
4.9542,-4.7356,0.0326
4.9583,-4.7444,0.0307
4.9625,-4.7258,0.0323
4.9667,-4.7332,0.0305
4.9708,-4.7143,0.0320
4.9750,-4.7207,0.0303
4.9792,-4.7016,0.0318
4.9833,-4.7072,0.0301
4.9875,-4.6881,0.0316
4.9917,-4.6932,0.0300
4.9958,-4.6744,0.0315
5.0000,-4.6793,0.0300
5.0042,-4.6608,0.0314
5.0083,-4.6656,0.0300
5.0125,-4.6477,0.0314
5.0167,-4.6527,0.0300
5.0208,-4.6355,0.0315
5.0250,-4.6408,0.0301
5.0292,-4.6245,0.0316
5.0333,-4.6304,0.0303
5.0375,-4.6152,0.0317
5.0417,-4.6218,0.0305
5.0458,-4.6078,0.0320
5.0500,-4.6152,0.0308
5.0542,-4.6026,0.0322
5.0583,-4.6111,0.0311
5.0625,-4.6001,0.0326
5.0667,-4.6097,0.0315
5.0708,-4.6004,0.0330
5.0750,-4.6114,0.0319
5.0792,-4.6040,0.0334
5.0833,-4.6164,0.0325
5.0875,-4.6110,0.0340
5.0917,-4.6250,0.0331
5.0958,-4.6219,0.0346
5.1000,-4.6375,0.0337
5.1042,-4.6368,0.0352
5.1083,-4.6543,0.0345
5.1125,-4.6561,0.0359
5.1167,-4.6755,0.0353
5.1208,-4.6801,0.0367
5.1250,-4.7014,0.0361
5.1292,-4.7090,0.0376
5.1333,-4.7324,0.0371
5.1375,-4.7431,0.0386
5.1417,-4.7687,0.0382
5.1458,-4.7826,0.0396
5.1500,-4.8105,0.0393
5.1542,-4.8279,0.0407
5.1583,-4.8582,0.0405
5.1625,-4.8791,0.0419
5.1667,-4.9119,0.0418
5.1708,-4.9365,0.0432
5.1750,-4.9719,0.0433
5.1792,-5.0003,0.0446
5.1833,-5.0384,0.0448
5.1875,-5.0707,0.0461
5.1917,-5.1115,0.0464
5.1958,-5.1478,0.0477
5.2000,-5.1916,0.0481
5.2042,-5.2319,0.0494
5.2083,-5.2787,0.0499
5.2125,-5.3230,0.0512
5.2167,-5.3729,0.0518
5.2208,-5.4213,0.0531
5.2250,-5.4744,0.0539
5.2292,-5.5268,0.0551
5.2333,-5.5832,0.0560
5.2375,-5.6395,0.0572
5.2417,-5.7012,0.0581
5.2458,-5.7632,0.0573
5.2500,-5.8197,0.0569
5.2542,-5.8755,0.0562
5.2583,-5.9270,0.0558
5.2625,-5.9772,0.0553
5.2667,-6.0240,0.0550
5.2708,-6.0694,0.0546
5.2750,-6.1120,0.0543
5.2792,-6.1531,0.0539
5.2833,-6.1918,0.0537
5.2875,-6.2292,0.0534
5.2917,-6.2646,0.0532
5.2958,-6.2988,0.0530
5.3000,-6.3314,0.0529
5.3042,-6.3630,0.0528
5.3083,-6.3932,0.0527
5.3125,-6.4227,0.0526
5.3167,-6.4511,0.0526
5.3208,-6.4790,0.0526
5.3250,-6.5060,0.0526
5.3292,-6.5326,0.0527
5.3333,-6.5586,0.0528
5.3375,-6.5844,0.0529
5.3417,-6.6099,0.0530
5.3458,-6.6353,0.0532
5.3500,-6.6605,0.0534
5.3542,-6.6859,0.0536
5.3583,-6.7114,0.0538
5.3625,-6.7371,0.0541
5.3667,-6.7630,0.0544
5.3708,-6.7895,0.0547
5.3750,-6.8162,0.0551
5.3792,-6.8436,0.0554
5.3833,-6.8715,0.0559
5.3875,-6.9002,0.0563
5.3917,-6.9296,0.0568
5.3958,-6.9598,0.0573
5.4000,-6.9908,0.0578
5.4042,-7.0228,0.0583
5.4083,-7.0578,0.0583
5.4125,-7.0912,0.0570
5.4167,-7.1173,0.0561
5.4208,-7.1415,0.0548
5.4250,-7.1592,0.0539
5.4292,-7.1749,0.0528
5.4333,-7.1848,0.0519
5.4375,-7.1927,0.0508
5.4417,-7.1952,0.0500
5.4458,-7.1960,0.0490
5.4500,-7.1917,0.0483
5.4542,-7.1860,0.0473
5.4583,-7.1755,0.0466
5.4625,-7.1639,0.0456
5.4667,-7.1476,0.0449
5.4708,-7.1307,0.0440
5.4750,-7.1093,0.0434
5.4792,-7.0875,0.0425
5.4833,-7.0613,0.0419
5.4875,-7.0352,0.0410
5.4917,-7.0046,0.0404
5.4958,-6.9745,0.0395
5.5000,-6.9399,0.0390
5.5042,-6.9064,0.0381
5.5083,-6.8682,0.0377
5.5125,-6.8314,0.0368
5.5167,-6.7899,0.0363
5.5208,-6.7503,0.0355
5.5250,-6.7058,0.0351
5.5292,-6.6636,0.0342
5.5333,-6.6163,0.0338
5.5375,-6.5717,0.0329
5.5417,-6.5220,0.0326
5.5458,-6.4753,0.0317
5.5500,-6.4233,0.0314
5.5542,-6.3747,0.0305
5.5583,-6.3207,0.0302
5.5625,-6.2704,0.0293
5.5667,-6.2145,0.0290
5.5708,-6.1625,0.0281
5.5750,-6.1050,0.0278
5.5792,-6.0515,0.0270
5.5833,-5.9925,0.0267
5.5875,-5.9376,0.0258
5.5917,-5.8773,0.0256
5.5958,-5.8211,0.0247
5.6000,-5.7596,0.0244
5.6042,-5.7021,0.0236
5.6083,-5.6395,0.0233
5.6125,-5.5809,0.0225
5.6167,-5.5173,0.0222
5.6208,-5.4576,0.0214
5.6250,-5.3932,0.0211
5.6292,-5.3323,0.0202
5.6333,-5.2671,0.0199
5.6375,-5.2036,0.0216
5.6417,-5.1512,0.0234
5.6458,-5.1060,0.0244
5.6500,-5.0643,0.0257
5.6542,-5.0303,0.0267
5.6583,-4.9991,0.0281
5.6625,-4.9760,0.0291
5.6667,-4.9551,0.0306
5.6708,-4.9427,0.0315
5.6750,-4.9315,0.0331
5.6792,-4.9297,0.0341
5.6833,-4.9295,0.0336
5.6875,-4.9254,0.0337
5.6917,-4.9252,0.0331
5.6958,-4.9187,0.0331
5.7000,-4.9160,0.0324
5.7042,-4.9075,0.0324
5.7083,-4.9027,0.0318
5.7125,-4.8923,0.0319
5.7167,-4.8857,0.0313
5.7208,-4.8738,0.0313
5.7250,-4.8656,0.0308
5.7292,-4.8524,0.0309
5.7333,-4.8430,0.0304
5.7375,-4.8288,0.0304
5.7417,-4.8184,0.0300
5.7458,-4.8033,0.0301
5.7500,-4.7922,0.0296
5.7542,-4.7765,0.0297
5.7583,-4.7648,0.0293
5.7625,-4.7487,0.0295
5.7667,-4.7367,0.0291
5.7708,-4.7204,0.0292
5.7750,-4.7082,0.0289
5.7792,-4.6919,0.0290
5.7833,-4.6797,0.0287
5.7875,-4.6635,0.0289
5.7917,-4.6515,0.0286
5.7958,-4.6357,0.0288
5.8000,-4.6241,0.0285
5.8042,-4.6087,0.0287
5.8083,-4.5976,0.0285
5.8125,-4.5828,0.0287
5.8167,-4.5724,0.0285
5.8208,-4.5584,0.0288
5.8250,-4.5488,0.0286
5.8292,-4.5357,0.0289
5.8333,-4.5270,0.0287
5.8375,-4.5149,0.0290
5.8417,-4.5074,0.0289
5.8458,-4.4965,0.0292
5.8500,-4.4902,0.0291
5.8542,-4.4806,0.0294
5.8583,-4.4756,0.0293
5.8625,-4.4675,0.0297
5.8667,-4.4639,0.0297
5.8708,-4.4574,0.0301
5.8750,-4.4554,0.0301
5.8792,-4.4506,0.0305
5.8833,-4.4504,0.0305
5.8875,-4.4473,0.0310
5.8917,-4.4489,0.0310
5.8958,-4.4479,0.0315
5.9000,-4.4514,0.0316
5.9042,-4.4525,0.0321
5.9083,-4.4581,0.0322
5.9125,-4.4613,0.0327
5.9167,-4.4691,0.0329
5.9208,-4.4747,0.0335
5.9250,-4.4848,0.0336
5.9292,-4.4929,0.0342
5.9333,-4.5054,0.0345
5.9375,-4.5161,0.0351
5.9417,-4.5311,0.0354
5.9458,-4.5445,0.0360
5.9500,-4.5621,0.0364
5.9542,-4.5784,0.0371
5.9583,-4.5988,0.0374
5.9625,-4.6181,0.0381
5.9667,-4.6413,0.0386
5.9708,-4.6637,0.0393
5.9750,-4.6898,0.0398
5.9792,-4.7155,0.0406
5.9833,-4.7447,0.0411
5.9875,-4.7736,0.0419
5.9917,-4.8060,0.0425
5.9958,-4.8384,0.0434
6.0000,-4.8740,0.0441
6.0042,-4.9099,0.0449
6.0083,-4.9488,0.0457
6.0125,-4.9883,0.0466
6.0167,-5.0306,0.0474
6.0208,-5.0738,0.0483
6.0250,-5.1196,0.0492
6.0292,-5.1665,0.0502
6.0333,-5.2158,0.0511
6.0375,-5.2664,0.0522
6.0417,-5.3194,0.0531
6.0458,-5.3737,0.0542
6.0500,-5.4303,0.0553
6.0542,-5.4884,0.0564
6.0583,-5.5485,0.0576
6.0625,-5.6122,0.0587
6.0667,-5.6782,0.0578
6.0708,-5.7376,0.0575
6.0750,-5.7972,0.0568
6.0792,-5.8520,0.0566
6.0833,-5.9062,0.0560
6.0875,-5.9566,0.0558
6.0917,-6.0060,0.0554
6.0958,-6.0524,0.0552
6.1000,-6.0977,0.0548
6.1042,-6.1406,0.0547
6.1083,-6.1824,0.0544
6.1125,-6.2221,0.0543
6.1167,-6.2609,0.0542
6.1208,-6.2981,0.0541
6.1250,-6.3345,0.0540
6.1292,-6.3695,0.0540
6.1333,-6.4038,0.0540
6.1375,-6.4371,0.0540
6.1417,-6.4700,0.0541
6.1458,-6.5021,0.0542
6.1500,-6.5339,0.0543
6.1542,-6.5652,0.0544
6.1583,-6.5964,0.0546
6.1625,-6.6273,0.0548
6.1667,-6.6583,0.0550
6.1708,-6.6892,0.0553
6.1750,-6.7203,0.0556
6.1792,-6.7516,0.0559
6.1833,-6.7832,0.0563
6.1875,-6.8152,0.0566
6.1917,-6.8477,0.0570
6.1958,-6.8806,0.0575
6.2000,-6.9142,0.0579
6.2042,-6.9485,0.0584
6.2083,-6.9835,0.0589
6.2125,-7.0193,0.0595
6.2167,-7.0561,0.0601
6.2208,-7.0958,0.0604
6.2250,-7.1355,0.0590
6.2292,-7.1669,0.0582
6.2333,-7.1974,0.0569
6.2375,-7.2207,0.0561
6.2417,-7.2427,0.0549
6.2458,-7.2584,0.0542
6.2500,-7.2728,0.0531
6.2542,-7.2813,0.0524
6.2583,-7.2887,0.0514
6.2625,-7.2906,0.0507
6.2667,-7.2916,0.0497
6.2708,-7.2875,0.0491
6.2750,-7.2829,0.0482
6.2792,-7.2733,0.0476
6.2833,-7.2635,0.0467
6.2875,-7.2489,0.0462
6.2917,-7.2345,0.0454
6.2958,-7.2154,0.0449
6.3000,-7.1969,0.0440
6.3042,-7.1737,0.0436
6.3083,-7.1516,0.0428
6.3125,-7.1247,0.0424
6.3167,-7.0994,0.0416
6.3208,-7.0692,0.0412
6.3250,-7.0411,0.0404
6.3292,-7.0079,0.0401
6.3333,-6.9774,0.0393
6.3375,-6.9414,0.0391
6.3417,-6.9088,0.0382
6.3458,-6.8705,0.0381
6.3500,-6.8361,0.0372
6.3542,-6.7956,0.0371
6.3583,-6.7597,0.0362
6.3625,-6.7172,0.0362
6.3667,-6.6801,0.0353
6.3708,-6.6359,0.0353
6.3750,-6.5978,0.0344
6.3792,-6.5520,0.0345
6.3833,-6.5131,0.0335
6.3875,-6.4661,0.0336
6.3917,-6.4265,0.0327
6.3958,-6.3783,0.0329
6.4000,-6.3383,0.0319
6.4042,-6.2891,0.0321
6.4083,-6.2489,0.0311
6.4125,-6.1988,0.0314
6.4167,-6.1585,0.0304
6.4208,-6.1077,0.0307
6.4250,-6.0673,0.0297
6.4292,-6.0160,0.0301
6.4333,-5.9758,0.0290
6.4375,-5.9240,0.0294
6.4417,-5.8839,0.0283
6.4458,-5.8319,0.0288
6.4500,-5.7921,0.0277
6.4542,-5.7399,0.0282
6.4583,-5.7004,0.0271
6.4625,-5.6482,0.0277
6.4667,-5.6091,0.0265
6.4708,-5.5570,0.0271
6.4750,-5.5184,0.0260
6.4792,-5.4664,0.0266
6.4833,-5.4283,0.0255
6.4875,-5.3765,0.0261
6.4917,-5.3390,0.0250
6.4958,-5.2876,0.0256
6.5000,-5.2507,0.0245
6.5042,-5.1997,0.0252
6.5083,-5.1635,0.0240
6.5125,-5.1131,0.0248
6.5167,-5.0774,0.0236
6.5208,-5.0276,0.0244
6.5250,-4.9927,0.0232
6.5292,-4.9436,0.0240
6.5333,-4.9094,0.0229
6.5375,-4.8610,0.0236
6.5417,-4.8276,0.0225
6.5458,-4.7800,0.0233
6.5500,-4.7474,0.0222
6.5542,-4.7007,0.0230
6.5583,-4.6689,0.0219
6.5625,-4.6231,0.0226
6.5667,-4.5922,0.0216
6.5708,-4.5473,0.0224
6.5750,-4.5173,0.0213
6.5792,-4.4734,0.0221
6.5833,-4.4442,0.0211
6.5875,-4.4015,0.0219
6.5917,-4.3732,0.0209
6.5958,-4.3316,0.0217
6.6000,-4.3043,0.0207
6.6042,-4.2638,0.0215
6.6083,-4.2374,0.0205
6.6125,-4.1982,0.0213
6.6167,-4.1728,0.0204
6.6208,-4.1348,0.0212
6.6250,-4.1104,0.0203
6.6292,-4.0737,0.0210
6.6333,-4.0503,0.0202
6.6375,-4.0134,0.0234
6.6417,-4.0072,0.0212
6.6458,-3.9684,0.0258
6.6500,-3.9797,0.0224
6.6542,-3.9399,0.0259
6.6583,-3.9534,0.0226
6.6625,-3.9155,0.0258
6.6667,-3.9289,0.0228
6.6708,-3.8928,0.0259
6.6750,-3.9062,0.0229
6.6792,-3.8721,0.0260
6.6833,-3.8856,0.0232
6.6875,-3.8537,0.0261
6.6917,-3.8673,0.0234
6.6958,-3.8376,0.0262
6.7000,-3.8516,0.0237
6.7042,-3.8242,0.0265
6.7083,-3.8386,0.0241
6.7125,-3.8135,0.0267
6.7167,-3.8285,0.0245
6.7208,-3.8059,0.0270
6.7250,-3.8216,0.0249
6.7292,-3.8016,0.0274
6.7333,-3.8180,0.0254
6.7375,-3.8007,0.0278
6.7417,-3.8179,0.0260
6.7458,-3.8034,0.0282
6.7500,-3.8216,0.0266
6.7542,-3.8100,0.0288
6.7583,-3.8293,0.0272
6.7625,-3.8207,0.0293
6.7667,-3.8411,0.0279
6.7708,-3.8357,0.0300
6.7750,-3.8573,0.0287
6.7792,-3.8552,0.0307
6.7833,-3.8781,0.0296
6.7875,-3.8794,0.0314
6.7917,-3.9038,0.0305
6.7958,-3.9086,0.0322
6.8000,-3.9344,0.0315
6.8042,-3.9429,0.0331
6.8083,-3.9704,0.0325
6.8125,-3.9825,0.0341
6.8167,-4.0118,0.0337
6.8208,-4.0278,0.0352
6.8250,-4.0590,0.0349
6.8292,-4.0788,0.0363
6.8333,-4.1121,0.0362
6.8375,-4.1358,0.0375
6.8417,-4.1713,0.0375
6.8458,-4.1990,0.0388
6.8500,-4.2369,0.0390
6.8542,-4.2686,0.0403
6.8583,-4.3090,0.0405
6.8625,-4.3447,0.0418
6.8667,-4.3879,0.0422
6.8708,-4.4276,0.0434
6.8750,-4.4736,0.0439
6.8792,-4.5174,0.0451
6.8833,-4.5664,0.0458
6.8875,-4.6141,0.0469
6.8917,-4.6663,0.0477
6.8958,-4.7180,0.0488
6.9000,-4.7734,0.0497
6.9042,-4.8290,0.0509
6.9083,-4.8878,0.0519
6.9125,-4.9473,0.0531
6.9167,-5.0095,0.0541
6.9208,-5.0728,0.0554
6.9250,-5.1385,0.0565
6.9292,-5.2055,0.0578
6.9333,-5.2747,0.0590
6.9375,-5.3472,0.0604
6.9417,-5.4230,0.0596
6.9458,-5.4922,0.0594
6.9500,-5.5619,0.0589
6.9542,-5.6272,0.0587
6.9583,-5.6919,0.0583
6.9625,-5.7534,0.0581
6.9667,-5.8139,0.0579
6.9708,-5.8718,0.0578
6.9750,-5.9286,0.0576
6.9792,-5.9835,0.0575
6.9833,-6.0372,0.0574
6.9875,-6.0894,0.0574
6.9917,-6.1406,0.0574
6.9958,-6.1906,0.0575
7.0000,-6.2398,0.0576
7.0042,-6.2881,0.0577
7.0083,-6.3357,0.0578
7.0125,-6.3825,0.0580
7.0167,-6.4290,0.0582
7.0208,-6.4751,0.0585
7.0250,-6.5209,0.0587
7.0292,-6.5665,0.0591
7.0333,-6.6120,0.0594
7.0375,-6.6576,0.0598
7.0417,-6.7032,0.0602
7.0458,-6.7491,0.0606
7.0500,-6.7953,0.0611
7.0542,-6.8418,0.0616
7.0583,-6.8888,0.0621
7.0625,-6.9363,0.0627
7.0667,-6.9844,0.0633
7.0708,-7.0353,0.0639
7.0750,-7.0875,0.0625
7.0792,-7.1308,0.0617
7.0833,-7.1736,0.0604
7.0875,-7.2091,0.0597
7.0917,-7.2434,0.0586
7.0958,-7.2715,0.0578
7.1000,-7.2981,0.0568
7.1042,-7.3192,0.0561
7.1083,-7.3388,0.0552
7.1125,-7.3535,0.0546
7.1167,-7.3668,0.0537
7.1208,-7.3756,0.0531
7.1250,-7.3832,0.0524
7.1292,-7.3867,0.0518
7.1333,-7.3893,0.0511
7.1375,-7.3879,0.0506
7.1417,-7.3860,0.0499
7.1458,-7.3803,0.0495
7.1500,-7.3745,0.0488
7.1542,-7.3651,0.0484
7.1583,-7.3558,0.0478
7.1625,-7.3430,0.0474
7.1667,-7.3308,0.0468
7.1708,-7.3151,0.0466
7.1750,-7.3004,0.0460
7.1792,-7.2821,0.0457
7.1833,-7.2654,0.0452
7.1875,-7.2449,0.0450
7.1917,-7.2265,0.0444
7.1958,-7.2041,0.0443
7.2000,-7.1844,0.0438
7.2042,-7.1604,0.0437
7.2083,-7.1397,0.0432
7.2125,-7.1144,0.0432
7.2167,-7.0931,0.0426
7.2208,-7.0668,0.0427
7.2250,-7.0452,0.0421
7.2292,-7.0179,0.0423
7.2333,-6.9963,0.0417
7.2375,-6.9684,0.0420
7.2417,-6.9472,0.0413
7.2458,-6.9188,0.0417
7.2500,-6.8982,0.0410
7.2542,-6.8694,0.0415
7.2583,-6.8498,0.0407
7.2625,-6.8207,0.0413
7.2667,-6.8024,0.0405
7.2708,-6.7731,0.0413
7.2750,-6.7565,0.0403
7.2792,-6.7270,0.0413
7.2833,-6.7125,0.0402
7.2875,-6.6827,0.0414
7.2917,-6.6707,0.0401
7.2958,-6.6408,0.0415
7.3000,-6.6316,0.0401
7.3042,-6.6013,0.0418
7.3083,-6.5955,0.0401
7.3125,-6.5648,0.0421
7.3167,-6.5627,0.0401
7.3208,-6.5315,0.0425
7.3250,-6.5337,0.0402
7.3292,-6.5017,0.0431
7.3333,-6.5086,0.0404
7.3375,-6.4756,0.0437
7.3417,-6.4879,0.0405
7.3458,-6.4538,0.0445
7.3500,-6.4718,0.0408
7.3542,-6.4362,0.0453
7.3583,-6.4608,0.0410
7.3625,-6.4234,0.0463
7.3667,-6.4549,0.0413
7.3708,-6.4155,0.0474
7.3750,-6.4487,0.0416
7.3792,-6.4098,0.0483
7.3833,-6.4437,0.0422
7.3875,-6.4079,0.0492
7.3917,-6.4439,0.0431
7.3958,-6.4120,0.0502
7.4000,-6.4508,0.0442
7.4042,-6.4232,0.0512
7.4083,-6.4650,0.0454
7.4125,-6.4420,0.0523
7.4167,-6.4872,0.0467
7.4208,-6.4690,0.0536
7.4250,-6.5176,0.0481
7.4292,-6.5044,0.0549
7.4333,-6.5565,0.0496
7.4375,-6.5506,0.0546
7.4417,-6.6045,0.0496
7.4458,-6.5971,0.0523
7.4500,-6.6390,0.0481
7.4542,-6.6281,0.0504
7.4583,-6.6604,0.0465
7.4625,-6.6450,0.0486
7.4667,-6.6696,0.0450
7.4708,-6.6492,0.0470
7.4750,-6.6673,0.0436
7.4792,-6.6419,0.0455
7.4833,-6.6547,0.0421
7.4875,-6.6242,0.0442
7.4917,-6.6326,0.0408
7.4958,-6.5972,0.0429
7.5000,-6.6019,0.0394
7.5042,-6.5617,0.0417
7.5083,-6.5635,0.0381
7.5125,-6.5186,0.0405
7.5167,-6.5181,0.0369
7.5208,-6.4688,0.0395
7.5250,-6.4664,0.0357
7.5292,-6.4130,0.0384
7.5333,-6.4093,0.0345
7.5375,-6.3519,0.0375
7.5417,-6.3471,0.0334
7.5458,-6.2861,0.0366
7.5500,-6.2806,0.0323
7.5542,-6.2162,0.0357
7.5583,-6.2101,0.0312
7.5625,-6.1427,0.0348
7.5667,-6.1362,0.0302
7.5708,-6.0660,0.0340
7.5750,-6.0593,0.0293
7.5792,-5.9867,0.0332
7.5833,-5.9797,0.0283
7.5875,-5.9050,0.0324
7.5917,-5.8979,0.0274
7.5958,-5.8213,0.0316
7.6000,-5.8140,0.0266
7.6042,-5.7367,0.0308
7.6083,-5.7288,0.0258
7.6125,-5.6511,0.0301
7.6167,-5.6424,0.0251
7.6208,-5.5642,0.0293
7.6250,-5.5546,0.0244
7.6292,-5.4759,0.0285
7.6333,-5.4656,0.0237
7.6375,-5.3866,0.0278
7.6417,-5.3756,0.0231
7.6458,-5.2966,0.0271
7.6500,-5.2849,0.0224
7.6542,-5.2062,0.0264
7.6583,-5.1939,0.0218
7.6625,-5.1157,0.0257
7.6667,-5.1025,0.0212
7.6708,-5.0251,0.0250
7.6750,-5.0111,0.0207
7.6792,-4.9345,0.0244
7.6833,-4.9197,0.0202
7.6875,-4.8442,0.0237
7.6917,-4.8284,0.0196
7.6958,-4.7541,0.0231
7.7000,-4.7374,0.0192
7.7042,-4.6643,0.0224
7.7083,-4.6467,0.0187
7.7125,-4.5750,0.0218
7.7167,-4.5565,0.0182
7.7208,-4.4846,0.0241
7.7250,-4.4820,0.0207
7.7292,-4.4184,0.0277
7.7333,-4.4203,0.0227
7.7375,-4.3674,0.0308
7.7417,-4.3932,0.0242
7.7458,-4.3372,0.0324
7.7500,-4.3820,0.0257
7.7542,-4.3586,0.0323
7.7583,-4.3851,0.0268
7.7625,-4.3477,0.0306
7.7667,-4.3716,0.0267
7.7708,-4.3349,0.0303
7.7750,-4.3569,0.0266
7.7792,-4.3214,0.0301
7.7833,-4.3419,0.0265
7.7875,-4.3075,0.0299
7.7917,-4.3269,0.0265
7.7958,-4.2938,0.0297
7.8000,-4.3122,0.0266
7.8042,-4.2804,0.0297
7.8083,-4.2981,0.0266
7.8125,-4.2678,0.0297
7.8167,-4.2851,0.0268
7.8208,-4.2563,0.0297
7.8250,-4.2734,0.0269
7.8292,-4.2462,0.0298
7.8333,-4.2632,0.0272
7.8375,-4.2378,0.0299
7.8417,-4.2551,0.0274
7.8458,-4.2315,0.0301
7.8500,-4.2491,0.0278
7.8542,-4.2276,0.0304
7.8583,-4.2456,0.0281
7.8625,-4.2263,0.0307
7.8667,-4.2448,0.0286
7.8708,-4.2279,0.0311
7.8750,-4.2472,0.0291
7.8792,-4.2326,0.0315
7.8833,-4.2528,0.0296
7.8875,-4.2409,0.0320
7.8917,-4.2620,0.0303
7.8958,-4.2529,0.0326
7.9000,-4.2751,0.0309
7.9042,-4.2689,0.0332
7.9083,-4.2923,0.0317
7.9125,-4.2892,0.0339
7.9167,-4.3139,0.0325
7.9208,-4.3140,0.0346
7.9250,-4.3402,0.0334
7.9292,-4.3436,0.0354
7.9333,-4.3713,0.0344
7.9375,-4.3783,0.0363
7.9417,-4.4076,0.0355
7.9458,-4.4183,0.0373
7.9500,-4.4493,0.0366
7.9542,-4.4638,0.0384
7.9583,-4.4967,0.0378
7.9625,-4.5151,0.0395
7.9667,-4.5500,0.0391
7.9708,-4.5725,0.0407
7.9750,-4.6095,0.0405
7.9792,-4.6360,0.0421
7.9833,-4.6753,0.0420
7.9875,-4.7059,0.0435
7.9917,-4.7476,0.0436
7.9958,-4.7825,0.0450
8.0000,-4.8267,0.0453
8.0042,-4.8658,0.0466
8.0083,-4.9128,0.0471
8.0125,-4.9560,0.0484
8.0167,-5.0059,0.0489
8.0208,-5.0533,0.0502
8.0250,-5.1062,0.0509
8.0292,-5.1577,0.0522
8.0333,-5.2137,0.0530
8.0375,-5.2692,0.0543
8.0417,-5.3285,0.0552
8.0458,-5.3880,0.0565
8.0500,-5.4506,0.0575
8.0542,-5.5157,0.0586
8.0583,-5.5835,0.0577
8.0625,-5.6445,0.0575
8.0667,-5.7058,0.0568
8.0708,-5.7623,0.0565
8.0750,-5.8182,0.0560
8.0792,-5.8705,0.0558
8.0833,-5.9218,0.0554
8.0875,-5.9701,0.0552
8.0917,-6.0173,0.0549
8.0958,-6.0622,0.0548
8.1000,-6.1059,0.0545
8.1042,-6.1477,0.0544
8.1083,-6.1886,0.0543
8.1125,-6.2278,0.0543
8.1167,-6.2662,0.0542
8.1208,-6.3034,0.0542
8.1250,-6.3399,0.0542
8.1292,-6.3754,0.0543
8.1333,-6.4104,0.0543
8.1375,-6.4447,0.0544
8.1417,-6.4788,0.0546
8.1458,-6.5123,0.0547
8.1500,-6.5457,0.0549
8.1542,-6.5789,0.0552
8.1583,-6.6121,0.0554
8.1625,-6.6453,0.0557
8.1667,-6.6787,0.0560
8.1708,-6.7123,0.0563
8.1750,-6.7462,0.0567
8.1792,-6.7804,0.0571
8.1833,-6.8152,0.0575
8.1875,-6.8505,0.0580
8.1917,-6.8864,0.0585
8.1958,-6.9230,0.0590
8.2000,-6.9603,0.0595
8.2042,-6.9984,0.0601
8.2083,-7.0396,0.0603
8.2125,-7.0801,0.0589
8.2167,-7.1127,0.0581
8.2208,-7.1440,0.0568
8.2250,-7.1685,0.0560
8.2292,-7.1914,0.0549
8.2333,-7.2081,0.0541
8.2375,-7.2232,0.0530
8.2417,-7.2328,0.0523
8.2458,-7.2409,0.0513
8.2500,-7.2438,0.0506
8.2542,-7.2455,0.0497
8.2583,-7.2423,0.0490
8.2625,-7.2382,0.0481
8.2667,-7.2295,0.0475
8.2708,-7.2201,0.0466
8.2750,-7.2064,0.0461
8.2792,-7.1923,0.0452
8.2833,-7.1740,0.0447
8.2875,-7.1558,0.0439
8.2917,-7.1333,0.0434
8.2958,-7.1114,0.0426
8.3000,-7.0852,0.0422
8.3042,-7.0600,0.0414
8.3083,-7.0304,0.0410
8.3125,-7.0023,0.0403
8.3167,-6.9697,0.0399
8.3208,-6.9391,0.0391
8.3250,-6.9038,0.0389
8.3292,-6.8710,0.0381
8.3333,-6.8332,0.0378
8.3375,-6.7985,0.0370
8.3417,-6.7586,0.0369
8.3458,-6.7223,0.0360
8.3500,-6.6804,0.0359
8.3542,-6.6428,0.0351
8.3583,-6.5991,0.0350
8.3625,-6.5604,0.0342
8.3667,-6.5152,0.0341
8.3708,-6.4755,0.0333
8.3750,-6.4290,0.0333
8.3792,-6.3886,0.0324
8.3833,-6.3410,0.0325
8.3875,-6.3000,0.0316
8.3917,-6.2514,0.0317
8.3958,-6.2101,0.0308
8.4000,-6.1605,0.0310
8.4042,-6.1190,0.0301
8.4083,-6.0688,0.0303
8.4125,-6.0271,0.0293
8.4167,-5.9763,0.0296
8.4208,-5.9346,0.0286
8.4250,-5.8834,0.0289
8.4292,-5.8417,0.0280
8.4333,-5.7903,0.0283
8.4375,-5.7487,0.0273
8.4417,-5.6971,0.0277
8.4458,-5.6558,0.0267
8.4500,-5.6041,0.0271
8.4542,-5.5631,0.0261
8.4583,-5.5114,0.0265
8.4625,-5.4707,0.0255
8.4667,-5.4192,0.0260
8.4708,-5.3789,0.0250
8.4750,-5.3277,0.0254
8.4792,-5.2878,0.0245
8.4833,-5.2369,0.0249
8.4875,-5.1975,0.0240
8.4917,-5.1470,0.0245
8.4958,-5.1081,0.0235
8.5000,-5.0581,0.0240
8.5042,-5.0198,0.0230
8.5083,-4.9703,0.0235
8.5125,-4.9325,0.0226
8.5167,-4.8837,0.0231
8.5208,-4.8466,0.0222
8.5250,-4.7984,0.0227
8.5292,-4.7619,0.0218
8.5333,-4.7144,0.0223
8.5375,-4.6786,0.0214
8.5417,-4.6320,0.0219
8.5458,-4.5968,0.0211
8.5500,-4.5510,0.0216
8.5542,-4.5165,0.0207
8.5583,-4.4717,0.0212
8.5625,-4.4379,0.0204
8.5667,-4.3939,0.0209
8.5708,-4.3609,0.0201
8.5750,-4.3179,0.0206
8.5792,-4.2856,0.0199
8.5833,-4.2425,0.0220
8.5875,-4.2204,0.0230
8.5917,-4.1931,0.0256
8.5958,-4.1872,0.0240
8.6000,-4.1591,0.0254
8.6042,-4.1538,0.0239
8.6083,-4.1265,0.0252
8.6125,-4.1212,0.0238
8.6167,-4.0946,0.0251
8.6208,-4.0896,0.0238
8.6250,-4.0638,0.0251
8.6292,-4.0592,0.0238
8.6333,-4.0344,0.0250
8.6375,-4.0302,0.0238
8.6417,-4.0065,0.0251
8.6458,-4.0028,0.0239
8.6500,-3.9803,0.0251
8.6542,-3.9773,0.0240
8.6583,-3.9561,0.0252
8.6625,-3.9539,0.0241
8.6667,-3.9341,0.0253
8.6708,-3.9328,0.0243
8.6750,-3.9144,0.0255
8.6792,-3.9142,0.0245
8.6833,-3.8974,0.0257
8.6875,-3.8982,0.0248
8.6917,-3.8831,0.0260
8.6958,-3.8852,0.0251
8.7000,-3.8719,0.0263
8.7042,-3.8752,0.0255
8.7083,-3.8638,0.0267
8.7125,-3.8685,0.0259
8.7167,-3.8591,0.0271
8.7208,-3.8653,0.0264
8.7250,-3.8580,0.0275
8.7292,-3.8657,0.0269
8.7333,-3.8608,0.0281
8.7375,-3.8701,0.0275
8.7417,-3.8675,0.0286
8.7458,-3.8785,0.0282
8.7500,-3.8785,0.0293
8.7542,-3.8913,0.0289
8.7583,-3.8938,0.0300
8.7625,-3.9085,0.0297
8.7667,-3.9139,0.0307
8.7708,-3.9305,0.0305
8.7750,-3.9387,0.0315
8.7792,-3.9575,0.0314
8.7833,-3.9686,0.0324
8.7875,-3.9896,0.0324
8.7917,-4.0038,0.0334
8.7958,-4.0271,0.0334
8.8000,-4.0445,0.0344
8.8042,-4.0701,0.0346
8.8083,-4.0909,0.0355
8.8125,-4.1191,0.0358
8.8167,-4.1432,0.0367
8.8208,-4.1740,0.0371
8.8250,-4.2016,0.0380
8.8292,-4.2352,0.0384
8.8333,-4.2663,0.0394
8.8375,-4.3028,0.0399
8.8417,-4.3376,0.0409
8.8458,-4.3770,0.0415
8.8500,-4.4155,0.0424
8.8542,-4.4581,0.0431
8.8583,-4.5002,0.0441
8.8625,-4.5460,0.0449
8.8667,-4.5919,0.0459
8.8708,-4.6411,0.0467
8.8750,-4.6908,0.0478
8.8792,-4.7433,0.0487
8.8833,-4.7968,0.0498
8.8875,-4.8528,0.0508
8.8917,-4.9100,0.0519
8.8958,-4.9696,0.0529
8.9000,-5.0305,0.0541
8.9042,-5.0937,0.0552
8.9083,-5.1583,0.0564
8.9125,-5.2250,0.0576
8.9167,-5.2933,0.0589
8.9208,-5.3654,0.0603
8.9250,-5.4403,0.0595
8.9292,-5.5089,0.0593
8.9333,-5.5778,0.0587
8.9375,-5.6425,0.0585
8.9417,-5.7064,0.0581
8.9458,-5.7671,0.0580
8.9500,-5.8267,0.0577
8.9542,-5.8839,0.0576
8.9583,-5.9399,0.0574
8.9625,-5.9939,0.0573
8.9667,-6.0467,0.0572
8.9708,-6.0980,0.0572
8.9750,-6.1484,0.0572
8.9792,-6.1974,0.0572
8.9833,-6.2457,0.0573
8.9875,-6.2930,0.0574
8.9917,-6.3397,0.0575
8.9958,-6.3856,0.0577
9.0000,-6.4311,0.0579
9.0042,-6.4761,0.0581
9.0083,-6.5209,0.0584
9.0125,-6.5654,0.0587
9.0167,-6.6100,0.0590
9.0208,-6.6545,0.0594
9.0250,-6.6991,0.0598
9.0292,-6.7439,0.0602
9.0333,-6.7890,0.0607
9.0375,-6.8345,0.0612
9.0417,-6.8804,0.0617
9.0458,-6.9267,0.0623
9.0500,-6.9737,0.0628
9.0542,-7.0235,0.0634
9.0583,-7.0741,0.0619
9.0625,-7.1160,0.0611
9.0667,-7.1572,0.0599
9.0708,-7.1912,0.0591
9.0750,-7.2239,0.0579
9.0792,-7.2503,0.0572
9.0833,-7.2752,0.0562
9.0875,-7.2946,0.0555
9.0917,-7.3124,0.0545
9.0958,-7.3252,0.0538
9.1000,-7.3366,0.0530
9.1042,-7.3434,0.0524
9.1083,-7.3490,0.0515
9.1125,-7.3503,0.0510
9.1167,-7.3508,0.0502
9.1208,-7.3473,0.0497
9.1250,-7.3431,0.0490
9.1292,-7.3352,0.0485
9.1333,-7.3270,0.0478
9.1375,-7.3151,0.0474
9.1417,-7.3034,0.0467
9.1458,-7.2880,0.0464
9.1500,-7.2732,0.0457
9.1542,-7.2547,0.0454
9.1583,-7.2373,0.0448
9.1625,-7.2161,0.0445
9.1667,-7.1964,0.0439
9.1708,-7.1729,0.0437
9.1750,-7.1513,0.0431
9.1792,-7.1258,0.0429
9.1833,-7.1027,0.0423
9.1875,-7.0755,0.0422
9.1917,-7.0512,0.0416
9.1958,-7.0225,0.0416
9.2000,-6.9974,0.0410
9.2042,-6.9674,0.0410
9.2083,-6.9418,0.0404
9.2125,-6.9108,0.0405
9.2167,-6.8850,0.0399
9.2208,-6.8532,0.0400
9.2250,-6.8274,0.0394
9.2292,-6.7949,0.0396
9.2333,-6.7695,0.0389
9.2375,-6.7364,0.0393
9.2417,-6.7117,0.0385
9.2458,-6.6782,0.0390
9.2500,-6.6544,0.0382
9.2542,-6.6207,0.0388
9.2583,-6.5981,0.0379
9.2625,-6.5641,0.0386
9.2667,-6.5430,0.0376
9.2708,-6.5089,0.0385
9.2750,-6.4896,0.0374
9.2792,-6.4553,0.0385
9.2833,-6.4382,0.0373
9.2875,-6.4038,0.0386
9.2917,-6.3891,0.0371
9.2958,-6.3545,0.0387
9.3000,-6.3426,0.0371
9.3042,-6.3079,0.0388
9.3083,-6.2992,0.0371
9.3125,-6.2642,0.0391
9.3167,-6.2589,0.0371
9.3208,-6.2237,0.0394
9.3250,-6.2223,0.0371
9.3292,-6.1866,0.0398
9.3333,-6.1894,0.0372
9.3375,-6.1533,0.0403
9.3417,-6.1607,0.0374
9.3458,-6.1240,0.0409
9.3500,-6.1364,0.0376
9.3542,-6.0989,0.0416
9.3583,-6.1167,0.0379
9.3625,-6.0784,0.0424
9.3667,-6.1019,0.0382
9.3708,-6.0627,0.0432
9.3750,-6.0922,0.0385
9.3792,-6.0521,0.0442
9.3833,-6.0871,0.0389
9.3875,-6.0464,0.0452
9.3917,-6.0815,0.0394
9.3958,-6.0433,0.0461
9.4000,-6.0804,0.0402
9.4042,-6.0458,0.0470
9.4083,-6.0854,0.0412
9.4125,-6.0549,0.0479
9.4167,-6.0974,0.0423
9.4208,-6.0714,0.0490
9.4250,-6.1170,0.0435
9.4292,-6.0955,0.0501
9.4333,-6.1443,0.0448
9.4375,-6.1277,0.0514
9.4417,-6.1799,0.0463
9.4458,-6.1681,0.0527
9.4500,-6.2238,0.0478
9.4542,-6.2172,0.0542
9.4583,-6.2765,0.0495
9.4625,-6.2750,0.0558
9.4667,-6.3380,0.0513
9.4708,-6.3438,0.0560
9.4750,-6.4049,0.0514
9.4792,-6.4116,0.0539
9.4833,-6.4600,0.0502
9.4875,-6.4647,0.0521
9.4917,-6.5033,0.0490
9.4958,-6.5046,0.0505
9.5000,-6.5353,0.0478
9.5042,-6.5328,0.0491
9.5083,-6.5570,0.0466
9.5125,-6.5505,0.0479
9.5167,-6.5693,0.0455
9.5208,-6.5589,0.0468
9.5250,-6.5732,0.0444
9.5292,-6.5589,0.0458
9.5333,-6.5696,0.0435
9.5375,-6.5517,0.0448
9.5417,-6.5594,0.0425
9.5458,-6.5380,0.0440
9.5500,-6.5435,0.0417
9.5542,-6.5188,0.0433
9.5583,-6.5226,0.0409
9.5625,-6.4948,0.0426
9.5667,-6.4975,0.0401
9.5708,-6.4668,0.0421
9.5750,-6.4689,0.0394
9.5792,-6.4354,0.0416
9.5833,-6.4375,0.0388
9.5875,-6.4012,0.0412
9.5917,-6.4038,0.0382
9.5958,-6.3650,0.0408
9.6000,-6.3685,0.0376
9.6042,-6.3272,0.0405
9.6083,-6.3321,0.0371
9.6125,-6.2883,0.0403
9.6167,-6.2951,0.0366
9.6208,-6.2489,0.0402
9.6250,-6.2580,0.0362
9.6292,-6.2093,0.0402
9.6333,-6.2212,0.0358
9.6375,-6.1701,0.0402
9.6417,-6.1852,0.0355
9.6458,-6.1317,0.0403
9.6500,-6.1503,0.0352
9.6542,-6.0944,0.0405
9.6583,-6.1169,0.0350
9.6625,-6.0597,0.0407
9.6667,-6.0852,0.0348
9.6708,-6.0295,0.0410
9.6750,-6.0572,0.0348
9.6792,-6.0028,0.0413
9.6833,-6.0319,0.0349
9.6875,-5.9784,0.0415
9.6917,-6.0082,0.0351
9.6958,-5.9550,0.0417
9.7000,-5.9849,0.0354
9.7042,-5.9314,0.0420
9.7083,-5.9606,0.0356
9.7125,-5.9083,0.0423
9.7167,-5.9378,0.0360
9.7208,-5.8885,0.0428
9.7250,-5.9201,0.0366
9.7292,-5.8738,0.0433
9.7333,-5.9074,0.0372
9.7375,-5.8642,0.0439
9.7417,-5.8999,0.0379
9.7458,-5.8601,0.0445
9.7500,-5.8981,0.0387
9.7542,-5.8618,0.0453
9.7583,-5.9022,0.0396
9.7625,-5.8697,0.0462
9.7667,-5.9127,0.0406
9.7708,-5.8841,0.0471
9.7750,-5.9299,0.0417
9.7792,-5.9055,0.0482
9.7833,-5.9541,0.0429
9.7875,-5.9341,0.0493
9.7917,-5.9857,0.0442
9.7958,-5.9702,0.0505
9.8000,-6.0250,0.0456
9.8042,-6.0142,0.0518
9.8083,-6.0722,0.0471
9.8125,-6.0663,0.0532
9.8167,-6.1276,0.0487
9.8208,-6.1266,0.0548
9.8250,-6.1902,0.0504
9.8292,-6.1948,0.0563
9.8333,-6.2602,0.0523
9.8375,-6.2730,0.0568
9.8417,-6.3365,0.0526
9.8458,-6.3505,0.0547
9.8500,-6.4012,0.0514
9.8542,-6.4135,0.0530
9.8583,-6.4543,0.0502
9.8625,-6.4635,0.0515
9.8667,-6.4964,0.0491
9.8708,-6.5020,0.0502
9.8750,-6.5284,0.0480
9.8792,-6.5303,0.0490
9.8833,-6.5513,0.0470
9.8875,-6.5494,0.0480
9.8917,-6.5659,0.0461
9.8958,-6.5605,0.0470
9.9000,-6.5734,0.0453
9.9042,-6.5646,0.0462
9.9083,-6.5745,0.0445
9.9125,-6.5627,0.0455
9.9167,-6.5701,0.0437
9.9208,-6.5555,0.0449
9.9250,-6.5612,0.0431
9.9292,-6.5440,0.0443
9.9333,-6.5484,0.0425
9.9375,-6.5288,0.0439
9.9417,-6.5325,0.0420
9.9458,-6.5108,0.0435
9.9500,-6.5143,0.0415
9.9542,-6.4905,0.0432
9.9583,-6.4943,0.0411
9.9625,-6.4686,0.0430
9.9667,-6.4732,0.0407
9.9708,-6.4457,0.0429
9.9750,-6.4515,0.0404
9.9792,-6.4223,0.0429
9.9833,-6.4299,0.0402
9.9875,-6.3989,0.0429
9.9917,-6.4088,0.0400
9.9958,-6.3761,0.0431
10.0000,-6.3887,0.0398
10.0042,-6.3543,0.0433
10.0083,-6.3701,0.0397
10.0125,-6.3339,0.0436
10.0167,-6.3535,0.0397
10.0208,-6.3155,0.0440
10.0250,-6.3392,0.0397
10.0292,-6.2993,0.0446
10.0333,-6.3276,0.0397
10.0375,-6.2858,0.0452
10.0417,-6.3191,0.0398
10.0458,-6.2754,0.0459
10.0500,-6.3088,0.0399
10.0542,-6.2658,0.0465
10.0583,-6.2997,0.0403
10.0625,-6.2589,0.0471
10.0667,-6.2943,0.0409
10.0708,-6.2564,0.0477
10.0750,-6.2937,0.0417
10.0792,-6.2591,0.0485
10.0833,-6.2985,0.0425
10.0875,-6.2675,0.0493
10.0917,-6.3093,0.0435
10.0958,-6.2821,0.0502
10.1000,-6.3265,0.0446
10.1042,-6.3033,0.0512
10.1083,-6.3504,0.0457
10.1125,-6.3316,0.0524
10.1167,-6.3816,0.0470
10.1208,-6.3672,0.0536
10.1250,-6.4203,0.0484
10.1292,-6.4106,0.0549
10.1333,-6.4669,0.0499
10.1375,-6.4620,0.0563
10.1417,-6.5216,0.0515
10.1458,-6.5238,0.0564
10.1500,-6.5828,0.0516
10.1542,-6.5849,0.0542
10.1583,-6.6312,0.0502
10.1625,-6.6306,0.0522
10.1667,-6.6670,0.0488
10.1708,-6.6625,0.0506
10.1750,-6.6909,0.0475
10.1792,-6.6820,0.0491
10.1833,-6.7037,0.0462
10.1875,-6.6902,0.0477
10.1917,-6.7065,0.0449
10.1958,-6.6884,0.0464
10.2000,-6.7002,0.0437
10.2042,-6.6776,0.0453
10.2083,-6.6857,0.0425
10.2125,-6.6589,0.0442
10.2167,-6.6640,0.0414
10.2208,-6.6330,0.0433
10.2250,-6.6359,0.0404
10.2292,-6.6009,0.0424
10.2333,-6.6022,0.0394
10.2375,-6.5634,0.0416
10.2417,-6.5636,0.0384
10.2458,-6.5211,0.0409
10.2500,-6.5208,0.0375
10.2542,-6.4748,0.0402
10.2583,-6.4745,0.0366
10.2625,-6.4250,0.0396
10.2667,-6.4252,0.0358
10.2708,-6.3724,0.0390
10.2750,-6.3734,0.0350
10.2792,-6.3174,0.0386
10.2833,-6.3197,0.0342
10.2875,-6.2606,0.0381
10.2917,-6.2646,0.0335
10.2958,-6.2025,0.0378
10.3000,-6.2084,0.0328
10.3042,-6.1435,0.0375
10.3083,-6.1517,0.0322
10.3125,-6.0844,0.0372
10.3167,-6.0949,0.0316
10.3208,-6.0290,0.0370
10.3250,-6.0399,0.0312
10.3292,-5.9743,0.0367
10.3333,-5.9855,0.0309
10.3375,-5.9201,0.0364
10.3417,-5.9316,0.0306
10.3458,-5.8665,0.0361
10.3500,-5.8784,0.0304
10.3542,-5.8138,0.0359
10.3583,-5.8261,0.0302
10.3625,-5.7621,0.0357
10.3667,-5.7751,0.0300
10.3708,-5.7117,0.0356
10.3750,-5.7254,0.0299
10.3792,-5.6628,0.0355
10.3833,-5.6774,0.0299
10.3875,-5.6157,0.0354
10.3917,-5.6313,0.0298
10.3958,-5.5706,0.0354
10.4000,-5.5873,0.0298
10.4042,-5.5277,0.0354
10.4083,-5.5457,0.0299
10.4125,-5.4873,0.0355
10.4167,-5.5066,0.0300
10.4208,-5.4494,0.0356
10.4250,-5.4702,0.0301
10.4292,-5.4144,0.0358
10.4333,-5.4368,0.0303
10.4375,-5.3825,0.0360
10.4417,-5.4066,0.0306
10.4458,-5.3538,0.0363
10.4500,-5.3797,0.0309
10.4542,-5.3285,0.0366
10.4583,-5.3563,0.0312
10.4625,-5.3068,0.0370
10.4667,-5.3368,0.0316
10.4708,-5.2890,0.0374
10.4750,-5.3211,0.0321
10.4792,-5.2752,0.0380
10.4833,-5.3096,0.0326
10.4875,-5.2657,0.0385
10.4917,-5.3025,0.0332
10.4958,-5.2605,0.0392
10.5000,-5.2998,0.0338
10.5042,-5.2599,0.0399
10.5083,-5.3018,0.0345
10.5125,-5.2640,0.0406
10.5167,-5.3081,0.0353
10.5208,-5.2726,0.0414
10.5250,-5.3182,0.0362
10.5292,-5.2865,0.0423
10.5333,-5.3346,0.0372
10.5375,-5.3068,0.0433
10.5417,-5.3575,0.0383
10.5458,-5.3338,0.0443
10.5500,-5.3871,0.0395
10.5542,-5.3677,0.0454
10.5583,-5.4231,0.0407
10.5625,-5.4085,0.0466
10.5667,-5.4656,0.0421
10.5708,-5.4563,0.0479
10.5750,-5.5149,0.0436
10.5792,-5.5114,0.0492
10.5833,-5.5712,0.0453
10.5875,-5.5739,0.0505
10.5917,-5.6346,0.0470
10.5958,-5.6440,0.0520
10.6000,-5.7055,0.0489
10.6042,-5.7217,0.0535
10.6083,-5.7839,0.0509
10.6125,-5.8072,0.0552
10.6167,-5.8700,0.0531
10.6208,-5.9003,0.0569
10.6250,-5.9657,0.0553
10.6292,-6.0057,0.0560
10.6333,-6.0604,0.0543
10.6375,-6.0974,0.0546
10.6417,-6.1438,0.0532
10.6458,-6.1769,0.0533
10.6500,-6.2165,0.0522
10.6542,-6.2456,0.0523
10.6583,-6.2795,0.0513
10.6625,-6.3047,0.0513
10.6667,-6.3336,0.0506
10.6708,-6.3553,0.0505
10.6750,-6.3801,0.0499
10.6792,-6.3985,0.0499
10.6833,-6.4197,0.0493
10.6875,-6.4353,0.0493
10.6917,-6.4536,0.0488
10.6958,-6.4667,0.0489
10.7000,-6.4826,0.0484
10.7042,-6.4937,0.0485
10.7083,-6.5077,0.0481
10.7125,-6.5171,0.0483
10.7167,-6.5296,0.0479
10.7208,-6.5378,0.0481
10.7250,-6.5492,0.0478
10.7292,-6.5566,0.0480
10.7333,-6.5673,0.0478
10.7375,-6.5741,0.0481
10.7417,-6.5846,0.0478
10.7458,-6.5912,0.0482
10.7500,-6.6018,0.0480
10.7542,-6.6084,0.0484
10.7583,-6.6195,0.0482
10.7625,-6.6265,0.0487
10.7667,-6.6383,0.0486
10.7708,-6.6460,0.0491
10.7750,-6.6588,0.0490
10.7792,-6.6675,0.0496
10.7833,-6.6817,0.0495
10.7875,-6.6915,0.0502
10.7917,-6.7073,0.0501
10.7958,-6.7186,0.0509
10.8000,-6.7362,0.0509
10.8042,-6.7492,0.0517
10.8083,-6.7690,0.0517
10.8125,-6.7837,0.0526
10.8167,-6.8059,0.0526
10.8208,-6.8227,0.0536
10.8250,-6.8474,0.0536
10.8292,-6.8665,0.0547
10.8333,-6.8939,0.0547
10.8375,-6.9155,0.0559
10.8417,-6.9478,0.0553
10.8458,-6.9708,0.0545
10.8500,-6.9939,0.0532
10.8542,-7.0088,0.0524
10.8583,-7.0235,0.0512
10.8625,-7.0307,0.0504
10.8667,-7.0377,0.0493
10.8708,-7.0379,0.0486
10.8750,-7.0379,0.0475
10.8792,-7.0314,0.0468
10.8833,-7.0251,0.0458
10.8875,-7.0125,0.0452
10.8917,-7.0005,0.0441
10.8958,-6.9823,0.0436
10.9000,-6.9651,0.0425
10.9042,-6.9417,0.0420
10.9083,-6.9198,0.0410
10.9125,-6.8918,0.0405
10.9167,-6.8656,0.0395
10.9208,-6.8333,0.0391
10.9250,-6.8033,0.0381
10.9292,-6.7670,0.0377
10.9333,-6.7336,0.0367
10.9375,-6.6937,0.0364
10.9417,-6.6572,0.0353
10.9458,-6.6140,0.0350
10.9500,-6.5747,0.0340
10.9542,-6.5285,0.0338
10.9583,-6.4867,0.0327
10.9625,-6.4378,0.0325
10.9667,-6.3937,0.0315
10.9708,-6.3422,0.0313
10.9750,-6.2961,0.0302
10.9792,-6.2424,0.0300
10.9833,-6.1943,0.0290
10.9875,-6.1385,0.0288
10.9917,-6.0887,0.0278
10.9958,-6.0311,0.0277
11.0000,-5.9796,0.0266
11.0042,-5.9204,0.0265
11.0083,-5.8673,0.0254
11.0125,-5.8066,0.0253
11.0167,-5.7520,0.0243
11.0208,-5.6901,0.0241
11.0250,-5.6340,0.0231
11.0292,-5.5709,0.0230
11.0333,-5.5135,0.0220
11.0375,-5.4494,0.0218
11.0417,-5.3906,0.0209
11.0458,-5.3255,0.0207
11.0500,-5.2639,0.0223
11.0542,-5.2123,0.0240
11.0583,-5.1677,0.0250
11.0625,-5.1268,0.0263
11.0667,-5.0932,0.0273
11.0708,-5.0626,0.0286
11.0750,-5.0399,0.0296
11.0792,-5.0193,0.0311
11.0833,-5.0071,0.0320
11.0875,-4.9963,0.0336
11.0917,-4.9944,0.0345
11.0958,-4.9945,0.0341
11.1000,-4.9908,0.0342
11.1042,-4.9902,0.0335
11.1083,-4.9841,0.0335
11.1125,-4.9809,0.0329
11.1167,-4.9726,0.0328
11.1208,-4.9672,0.0322
11.1250,-4.9569,0.0322
11.1292,-4.9497,0.0317
11.1333,-4.9378,0.0317
11.1375,-4.9289,0.0312
11.1417,-4.9157,0.0312
11.1458,-4.9055,0.0307
11.1500,-4.8911,0.0307
11.1542,-4.8799,0.0303
11.1583,-4.8646,0.0303
11.1625,-4.8525,0.0299
11.1667,-4.8365,0.0300
11.1708,-4.8239,0.0296
11.1750,-4.8074,0.0297
11.1792,-4.7943,0.0293
11.1833,-4.7776,0.0294
11.1875,-4.7643,0.0291
11.1917,-4.7475,0.0292
11.1958,-4.7342,0.0289
11.2000,-4.7175,0.0290
11.2042,-4.7043,0.0287
11.2083,-4.6879,0.0289
11.2125,-4.6750,0.0286
11.2167,-4.6589,0.0288
11.2208,-4.6466,0.0286
11.2250,-4.6311,0.0288
11.2292,-4.6193,0.0286
11.2333,-4.6045,0.0288
11.2375,-4.5935,0.0286
11.2417,-4.5796,0.0289
11.2458,-4.5695,0.0287
11.2500,-4.5565,0.0290
11.2542,-4.5475,0.0288
11.2583,-4.5357,0.0291
11.2625,-4.5278,0.0290
11.2667,-4.5172,0.0293
11.2708,-4.5106,0.0293
11.2750,-4.5014,0.0296
11.2792,-4.4963,0.0295
11.2833,-4.4886,0.0299
11.2875,-4.4850,0.0299
11.2917,-4.4790,0.0303
11.2958,-4.4770,0.0303
11.3000,-4.4728,0.0307
11.3042,-4.4726,0.0308
11.3083,-4.4702,0.0312
11.3125,-4.4720,0.0313
11.3167,-4.4717,0.0318
11.3208,-4.4754,0.0319
11.3250,-4.4772,0.0324
11.3292,-4.4831,0.0325
11.3333,-4.4872,0.0331
11.3375,-4.4953,0.0332
11.3417,-4.5019,0.0338
11.3458,-4.5123,0.0340
11.3500,-4.5214,0.0346
11.3542,-4.5344,0.0349
11.3583,-4.5461,0.0355
11.3625,-4.5616,0.0358
11.3667,-4.5761,0.0365
11.3708,-4.5944,0.0368
11.3750,-4.6118,0.0375
11.3792,-4.6328,0.0379
11.3833,-4.6533,0.0386
11.3875,-4.6772,0.0391
11.3917,-4.7008,0.0399
11.3958,-4.7278,0.0404
11.4000,-4.7547,0.0412
11.4042,-4.7848,0.0417
11.4083,-4.8150,0.0426
11.4125,-4.8483,0.0432
11.4167,-4.8820,0.0440
11.4208,-4.9186,0.0447
11.4250,-4.9558,0.0456
11.4292,-4.9958,0.0464
11.4333,-5.0366,0.0473
11.4375,-5.0801,0.0481
11.4417,-5.1246,0.0491
11.4458,-5.1716,0.0500
11.4500,-5.2198,0.0510
11.4542,-5.2704,0.0520
11.4583,-5.3224,0.0530
11.4625,-5.3765,0.0540
11.4667,-5.4322,0.0551
11.4708,-5.4901,0.0562
11.4750,-5.5495,0.0574
11.4792,-5.6128,0.0584
11.4833,-5.6779,0.0575
11.4875,-5.7366,0.0572
11.4917,-5.7954,0.0566
11.4958,-5.8495,0.0563
11.5000,-5.9028,0.0558
11.5042,-5.9525,0.0555
11.5083,-6.0011,0.0551
11.5125,-6.0467,0.0548
11.5167,-6.0912,0.0545
11.5208,-6.1332,0.0543
11.5250,-6.1741,0.0541
11.5292,-6.2129,0.0540
11.5333,-6.2508,0.0538
11.5375,-6.2869,0.0537
11.5417,-6.3223,0.0536
11.5458,-6.3564,0.0536
11.5500,-6.3898,0.0536
11.5542,-6.4221,0.0536
11.5583,-6.4540,0.0536
11.5625,-6.4851,0.0537
11.5667,-6.5160,0.0538
11.5708,-6.5462,0.0540
11.5750,-6.5764,0.0541
11.5792,-6.6063,0.0543
11.5833,-6.6362,0.0545
11.5875,-6.6660,0.0548
11.5917,-6.6960,0.0551
11.5958,-6.7262,0.0554
11.6000,-6.7567,0.0557
11.6042,-6.7874,0.0561
11.6083,-6.8188,0.0565
11.6125,-6.8505,0.0569
11.6167,-6.8829,0.0573
11.6208,-6.9159,0.0578
11.6250,-6.9498,0.0583
11.6292,-6.9843,0.0588
11.6333,-7.0198,0.0594
11.6375,-7.0582,0.0595
11.6417,-7.0957,0.0582
11.6458,-7.1255,0.0573
11.6500,-7.1538,0.0560
11.6542,-7.1753,0.0552
11.6583,-7.1951,0.0540
11.6625,-7.2088,0.0532
11.6667,-7.2208,0.0521
11.6708,-7.2272,0.0514
11.6750,-7.2322,0.0504
11.6792,-7.2319,0.0496
11.6833,-7.2304,0.0487
11.6875,-7.2238,0.0480
11.6917,-7.2165,0.0471
11.6958,-7.2044,0.0464
11.7000,-7.1917,0.0455
11.7042,-7.1744,0.0449
11.7083,-7.1570,0.0441
11.7125,-7.1351,0.0435
11.7167,-7.1134,0.0427
11.7208,-7.0872,0.0422
11.7250,-7.0617,0.0413
11.7292,-7.0317,0.0409
11.7333,-7.0028,0.0400
11.7375,-6.9692,0.0396
11.7417,-6.9373,0.0388
11.7458,-6.9006,0.0384
11.7500,-6.8660,0.0376
11.7542,-6.8264,0.0372
11.7583,-6.7895,0.0364
11.7625,-6.7473,0.0361
11.7667,-6.7083,0.0352
11.7708,-6.6638,0.0350
11.7750,-6.6230,0.0341
11.7792,-6.5763,0.0340
11.7833,-6.5339,0.0331
11.7875,-6.4854,0.0329
11.7917,-6.4416,0.0320
11.7958,-6.3913,0.0319
11.8000,-6.3464,0.0310
11.8042,-6.2946,0.0309
11.8083,-6.2486,0.0300
11.8125,-6.1955,0.0300
11.8167,-6.1486,0.0291
11.8208,-6.0943,0.0291
11.8250,-6.0466,0.0281
11.8292,-5.9914,0.0281
11.8333,-5.9429,0.0272
11.8375,-5.8868,0.0272
11.8417,-5.8378,0.0263
11.8458,-5.7809,0.0264
11.8500,-5.7313,0.0254
11.8542,-5.6739,0.0255
11.8583,-5.6238,0.0246
11.8625,-5.5659,0.0246
11.8667,-5.5154,0.0237
11.8708,-5.4571,0.0238
11.8750,-5.4061,0.0229
11.8792,-5.3476,0.0229
11.8833,-5.2962,0.0221
11.8875,-5.2376,0.0221
11.8917,-5.1858,0.0213
11.8958,-5.1270,0.0213
11.9000,-5.0749,0.0205
11.9042,-5.0161,0.0205
11.9083,-4.9637,0.0197
11.9125,-4.9049,0.0197
11.9167,-4.8522,0.0189
11.9208,-4.7917,0.0219
11.9250,-4.7566,0.0220
11.9292,-4.7087,0.0248
11.9333,-4.6878,0.0244
11.9375,-4.6489,0.0277
11.9417,-4.6426,0.0269
11.9458,-4.6118,0.0307
11.9500,-4.6203,0.0294
11.9542,-4.5967,0.0338
11.9583,-4.6212,0.0302
11.9625,-4.5952,0.0335
11.9667,-4.6192,0.0301
11.9708,-4.5932,0.0329
11.9750,-4.6143,0.0298
11.9792,-4.5883,0.0325
11.9833,-4.6069,0.0295
11.9875,-4.5811,0.0321
11.9917,-4.5977,0.0293
11.9958,-4.5720,0.0318
12.0000,-4.5870,0.0291
12.0042,-4.5616,0.0315
12.0083,-4.5753,0.0290
12.0125,-4.5503,0.0313
12.0167,-4.5630,0.0289
12.0208,-4.5385,0.0312
12.0250,-4.5506,0.0289
12.0292,-4.5268,0.0311
12.0333,-4.5385,0.0289
12.0375,-4.5154,0.0311
12.0417,-4.5269,0.0290
12.0458,-4.5049,0.0311
12.0500,-4.5164,0.0291
12.0542,-4.4954,0.0312
12.0583,-4.5071,0.0292
12.0625,-4.4874,0.0314
12.0667,-4.4996,0.0295
12.0708,-4.4813,0.0316
12.0750,-4.4940,0.0298
12.0792,-4.4772,0.0318
12.0833,-4.4907,0.0301
12.0875,-4.4757,0.0321
12.0917,-4.4900,0.0305
12.0958,-4.4769,0.0325
12.1000,-4.4923,0.0309
12.1042,-4.4812,0.0329
12.1083,-4.4978,0.0315
12.1125,-4.4889,0.0334
12.1167,-4.5067,0.0321
12.1208,-4.5003,0.0340
12.1250,-4.5195,0.0327
12.1292,-4.5156,0.0346
12.1333,-4.5363,0.0335
12.1375,-4.5352,0.0353
12.1417,-4.5575,0.0343
12.1458,-4.5593,0.0361
12.1500,-4.5833,0.0351
12.1542,-4.5882,0.0369
12.1583,-4.6140,0.0361
12.1625,-4.6222,0.0378
12.1667,-4.6499,0.0371
12.1708,-4.6615,0.0388
12.1750,-4.6912,0.0383
12.1792,-4.7064,0.0399
12.1833,-4.7382,0.0395
12.1875,-4.7572,0.0411
12.1917,-4.7912,0.0408
12.1958,-4.8140,0.0423
12.2000,-4.8503,0.0422
12.2042,-4.8771,0.0437
12.2083,-4.9159,0.0437
12.2125,-4.9467,0.0451
12.2167,-4.9880,0.0453
12.2208,-5.0229,0.0467
12.2250,-5.0669,0.0470
12.2292,-5.1060,0.0483
12.2333,-5.1528,0.0488
12.2375,-5.1961,0.0501
12.2417,-5.2458,0.0507
12.2458,-5.2932,0.0519
12.2500,-5.3461,0.0527
12.2542,-5.3975,0.0539
12.2583,-5.4535,0.0548
12.2625,-5.5090,0.0560
12.2667,-5.5683,0.0570
12.2708,-5.6295,0.0580
12.2750,-5.6936,0.0571
12.2792,-5.7504,0.0568
12.2833,-5.8078,0.0561
12.2875,-5.8599,0.0558
12.2917,-5.9116,0.0552
12.2958,-5.9593,0.0549
12.3000,-6.0060,0.0545
12.3042,-6.0496,0.0542
12.3083,-6.0921,0.0539
12.3125,-6.1320,0.0537
12.3167,-6.1708,0.0534
12.3208,-6.2074,0.0532
12.3250,-6.2431,0.0530
12.3292,-6.2770,0.0529
12.3333,-6.3101,0.0528
12.3375,-6.3417,0.0528
12.3417,-6.3727,0.0527
12.3458,-6.4025,0.0527
12.3500,-6.4318,0.0527
12.3542,-6.4602,0.0527
12.3583,-6.4883,0.0528
12.3625,-6.5158,0.0529
12.3667,-6.5431,0.0530
12.3708,-6.5700,0.0532
12.3750,-6.5970,0.0533
12.3792,-6.6238,0.0536
12.3833,-6.6507,0.0538
12.3875,-6.6777,0.0541
12.3917,-6.7050,0.0543
12.3958,-6.7325,0.0547
12.4000,-6.7605,0.0550
12.4042,-6.7888,0.0554
12.4083,-6.8179,0.0558
12.4125,-6.8474,0.0562
12.4167,-6.8777,0.0566
12.4208,-6.9086,0.0571
12.4250,-6.9405,0.0576
12.4292,-6.9731,0.0582
12.4333,-7.0069,0.0587
12.4375,-7.0435,0.0588
12.4417,-7.0789,0.0575
12.4458,-7.1069,0.0566
12.4500,-7.1332,0.0554
12.4542,-7.1530,0.0545
12.4583,-7.1709,0.0534
12.4625,-7.1829,0.0525
12.4667,-7.1932,0.0515
12.4708,-7.1980,0.0507
12.4750,-7.2013,0.0497
12.4792,-7.1994,0.0490
12.4833,-7.1963,0.0480
12.4875,-7.1883,0.0473
12.4917,-7.1794,0.0464
12.4958,-7.1658,0.0458
12.5000,-7.1517,0.0449
12.5042,-7.1330,0.0443
12.5083,-7.1142,0.0434
12.5125,-7.0908,0.0429
12.5167,-7.0679,0.0420
12.5208,-7.0403,0.0415
12.5250,-7.0135,0.0406
12.5292,-6.9821,0.0402
12.5333,-6.9520,0.0393
12.5375,-6.9170,0.0389
12.5417,-6.8839,0.0381
12.5458,-6.8458,0.0377
12.5500,-6.8101,0.0368
12.5542,-6.7690,0.0365
12.5583,-6.7310,0.0356
12.5625,-6.6873,0.0354
12.5667,-6.6472,0.0345
12.5708,-6.6012,0.0342
12.5750,-6.5592,0.0334
12.5792,-6.5110,0.0332
12.5833,-6.4674,0.0323
12.5875,-6.4174,0.0321
12.5917,-6.3723,0.0312
12.5958,-6.3206,0.0311
12.6000,-6.2742,0.0301
12.6042,-6.2210,0.0301
12.6083,-6.1735,0.0291
12.6125,-6.1189,0.0291
12.6167,-6.0704,0.0281
12.6208,-6.0146,0.0281
12.6250,-5.9652,0.0271
12.6292,-5.9084,0.0271
12.6333,-5.8582,0.0262
12.6375,-5.8005,0.0262
12.6417,-5.7496,0.0252
12.6458,-5.6911,0.0252
12.6500,-5.6395,0.0243
12.6542,-5.5804,0.0243
12.6583,-5.5281,0.0234
12.6625,-5.4686,0.0234
12.6667,-5.4156,0.0225
12.6708,-5.3557,0.0225
12.6750,-5.3021,0.0216
12.6792,-5.2419,0.0216
12.6833,-5.1877,0.0207
12.6875,-5.1273,0.0207
12.6917,-5.0726,0.0199
12.6958,-5.0119,0.0198
12.7000,-4.9553,0.0212
12.7042,-4.9069,0.0233
12.7083,-4.8684,0.0242
12.7125,-4.8312,0.0258
12.7167,-4.8048,0.0267
12.7208,-4.7783,0.0285
12.7250,-4.7638,0.0293
12.7292,-4.7475,0.0312
12.7333,-4.7447,0.0319
12.7375,-4.7397,0.0318
12.7417,-4.7357,0.0317
12.7458,-4.7308,0.0314
12.7500,-4.7251,0.0312
12.7542,-4.7186,0.0309
12.7583,-4.7113,0.0307
12.7625,-4.7034,0.0305
12.7667,-4.6949,0.0303
12.7708,-4.6858,0.0301
12.7750,-4.6763,0.0299
12.7792,-4.6664,0.0298
12.7833,-4.6561,0.0296
12.7875,-4.6456,0.0295
12.7917,-4.6348,0.0294
12.7958,-4.6238,0.0292
12.8000,-4.6126,0.0291
12.8042,-4.6014,0.0290
12.8083,-4.5901,0.0290
12.8125,-4.5788,0.0289
12.8167,-4.5675,0.0288
12.8208,-4.5564,0.0288
12.8250,-4.5453,0.0288
12.8292,-4.5345,0.0287
12.8333,-4.5238,0.0287
12.8375,-4.5134,0.0287
12.8417,-4.5033,0.0288
12.8458,-4.4936,0.0288
12.8500,-4.4842,0.0288
12.8542,-4.4752,0.0289
12.8583,-4.4666,0.0289
12.8625,-4.4586,0.0290
12.8667,-4.4510,0.0291
12.8708,-4.4441,0.0292
12.8750,-4.4376,0.0293
12.8792,-4.4319,0.0295
12.8833,-4.4267,0.0296
12.8875,-4.4223,0.0298
12.8917,-4.4186,0.0299
12.8958,-4.4157,0.0301
12.9000,-4.4135,0.0303
12.9042,-4.4122,0.0305
12.9083,-4.4117,0.0308
12.9125,-4.4121,0.0310
12.9167,-4.4134,0.0313
12.9208,-4.4157,0.0316
12.9250,-4.4190,0.0319
12.9292,-4.4233,0.0322
12.9333,-4.4286,0.0325
12.9375,-4.4350,0.0328
12.9417,-4.4426,0.0332
12.9458,-4.4512,0.0336
12.9500,-4.4611,0.0340
12.9542,-4.4722,0.0344
12.9583,-4.4844,0.0348
12.9625,-4.4980,0.0352
12.9667,-4.5129,0.0357
12.9708,-4.5291,0.0362
12.9750,-4.5467,0.0367
12.9792,-4.5656,0.0372
12.9833,-4.5860,0.0378
12.9875,-4.6078,0.0384
12.9917,-4.6311,0.0389
12.9958,-4.6560,0.0396
13.0000,-4.6823,0.0402
13.0042,-4.7102,0.0409
13.0083,-4.7397,0.0415
13.0125,-4.7709,0.0422
13.0167,-4.8036,0.0430
13.0208,-4.8380,0.0437
13.0250,-4.8742,0.0445
13.0292,-4.9120,0.0453
13.0333,-4.9515,0.0461
13.0375,-4.9928,0.0470
13.0417,-5.0359,0.0478
13.0458,-5.0807,0.0487
13.0500,-5.1273,0.0497
13.0542,-5.1758,0.0506
13.0583,-5.2260,0.0516
13.0625,-5.2781,0.0526
13.0667,-5.3320,0.0537
13.0708,-5.3877,0.0547
13.0750,-5.4452,0.0558
13.0792,-5.5046,0.0570
13.0833,-5.5668,0.0567
13.0875,-5.6271,0.0575
13.0917,-5.6897,0.0566
13.0958,-5.7453,0.0564
13.1000,-5.8016,0.0557
13.1042,-5.8528,0.0554
13.1083,-5.9038,0.0549
13.1125,-5.9508,0.0547
13.1167,-5.9972,0.0543
13.1208,-6.0403,0.0541
13.1250,-6.0827,0.0538
13.1292,-6.1224,0.0536
13.1333,-6.1613,0.0534
13.1375,-6.1981,0.0533
13.1417,-6.2342,0.0531
13.1458,-6.2686,0.0531
13.1500,-6.3023,0.0530
13.1542,-6.3347,0.0530
13.1583,-6.3666,0.0530
13.1625,-6.3974,0.0530
13.1667,-6.4279,0.0530
13.1708,-6.4576,0.0532
13.1750,-6.4872,0.0532
13.1792,-6.5162,0.0534
13.1833,-6.5452,0.0536
13.1875,-6.5739,0.0538
13.1917,-6.6028,0.0540
13.1958,-6.6316,0.0543
13.2000,-6.6608,0.0545
13.2042,-6.6899,0.0549
13.2083,-6.7197,0.0552
13.2125,-6.7495,0.0556
13.2167,-6.7801,0.0559
13.2208,-6.8111,0.0564
13.2250,-6.8429,0.0568
13.2292,-6.8753,0.0573
13.2333,-6.9085,0.0578
13.2375,-6.9425,0.0584
13.2417,-6.9775,0.0589
13.2458,-7.0133,0.0595
13.2500,-7.0524,0.0598
13.2542,-7.0911,0.0584
13.2583,-7.1219,0.0576
13.2625,-7.1516,0.0564
13.2667,-7.1744,0.0556
13.2708,-7.1958,0.0545
13.2750,-7.2110,0.0537
13.2792,-7.2249,0.0527
13.2833,-7.2331,0.0520
13.2875,-7.2402,0.0510
13.2917,-7.2419,0.0503
13.2958,-7.2428,0.0494
13.3000,-7.2386,0.0488
13.3042,-7.2339,0.0479
13.3083,-7.2243,0.0473
13.3125,-7.2146,0.0464
13.3167,-7.2002,0.0459
13.3208,-7.1860,0.0451
13.3250,-7.1671,0.0446
13.3292,-7.1490,0.0438
13.3333,-7.1262,0.0434
13.3375,-7.1045,0.0426
13.3417,-7.0781,0.0422
13.3458,-7.0534,0.0414
13.3500,-7.0237,0.0411
13.3542,-6.9963,0.0403
13.3583,-6.9638,0.0400
13.3625,-6.9340,0.0392
13.3667,-6.8989,0.0390
13.3708,-6.8671,0.0382
13.3750,-6.8297,0.0380
13.3792,-6.7962,0.0372
13.3833,-6.7566,0.0371
13.3875,-6.7217,0.0363
13.3917,-6.6804,0.0362
13.3958,-6.6443,0.0354
13.4000,-6.6013,0.0354
13.4042,-6.5643,0.0345
13.4083,-6.5198,0.0346
13.4125,-6.4821,0.0337
13.4167,-6.4364,0.0338
13.4208,-6.3982,0.0329
13.4250,-6.3514,0.0331
13.4292,-6.3128,0.0321
13.4333,-6.2651,0.0323
13.4375,-6.2263,0.0314
13.4417,-6.1779,0.0317
13.4458,-6.1391,0.0307
13.4500,-6.0900,0.0310
13.4542,-6.0512,0.0300
13.4583,-6.0017,0.0304
13.4625,-5.9631,0.0294
13.4667,-5.9132,0.0298
13.4708,-5.8750,0.0288
13.4750,-5.8248,0.0293
13.4792,-5.7870,0.0282
13.4833,-5.7367,0.0287
13.4875,-5.6993,0.0276
13.4917,-5.6491,0.0282
13.4958,-5.6123,0.0271
13.5000,-5.5621,0.0278
13.5042,-5.5259,0.0266
13.5083,-5.4760,0.0273
13.5125,-5.4405,0.0261
13.5167,-5.3909,0.0269
13.5208,-5.3561,0.0257
13.5250,-5.3069,0.0265
13.5292,-5.2729,0.0253
13.5333,-5.2242,0.0261
13.5375,-5.1910,0.0249
13.5417,-5.1429,0.0257
13.5458,-5.1106,0.0246
13.5500,-5.0632,0.0254
13.5542,-5.0318,0.0242
13.5583,-4.9851,0.0251
13.5625,-4.9547,0.0239
13.5667,-4.9088,0.0248
13.5708,-4.8793,0.0237
13.5750,-4.8343,0.0246
13.5792,-4.8059,0.0234
13.5833,-4.7618,0.0243
13.5875,-4.7345,0.0232
13.5917,-4.6914,0.0241
13.5958,-4.6651,0.0230
13.6000,-4.6232,0.0240
13.6042,-4.5980,0.0229
13.6083,-4.5572,0.0238
13.6125,-4.5332,0.0227
13.6167,-4.4936,0.0237
13.6208,-4.4708,0.0226
13.6250,-4.4324,0.0236
13.6292,-4.4108,0.0226
13.6333,-4.3738,0.0235
13.6375,-4.3535,0.0225
13.6417,-4.3178,0.0235
13.6458,-4.2987,0.0225
13.6500,-4.2645,0.0235
13.6542,-4.2468,0.0225
13.6583,-4.2140,0.0235
13.6625,-4.1977,0.0226
13.6667,-4.1665,0.0236
13.6708,-4.1516,0.0227
13.6750,-4.1220,0.0237
13.6792,-4.1085,0.0228
13.6833,-4.0806,0.0238
13.6875,-4.0686,0.0229
13.6917,-4.0424,0.0240
13.6958,-4.0320,0.0231
13.7000,-4.0075,0.0242
13.7042,-3.9987,0.0234
13.7083,-3.9762,0.0244
13.7125,-3.9690,0.0236
13.7167,-3.9483,0.0247
13.7208,-3.9428,0.0239
13.7250,-3.9242,0.0250
13.7292,-3.9204,0.0243
13.7333,-3.9039,0.0253
13.7375,-3.9019,0.0247
13.7417,-3.8876,0.0257
13.7458,-3.8874,0.0252
13.7500,-3.8753,0.0262
13.7542,-3.8771,0.0257
13.7583,-3.8674,0.0267
13.7625,-3.8710,0.0262
13.7667,-3.8638,0.0273
13.7708,-3.8695,0.0268
13.7750,-3.8647,0.0279
13.7792,-3.8725,0.0275
13.7833,-3.8705,0.0285
13.7875,-3.8804,0.0282
13.7917,-3.8811,0.0292
13.7958,-3.8932,0.0290
13.8000,-3.8967,0.0300
13.8042,-3.9111,0.0299
13.8083,-3.9176,0.0309
13.8125,-3.9344,0.0308
13.8167,-3.9440,0.0318
13.8208,-3.9631,0.0318
13.8250,-3.9759,0.0328
13.8292,-3.9976,0.0328
13.8333,-4.0137,0.0338
13.8375,-4.0379,0.0340
13.8417,-4.0574,0.0350
13.8458,-4.0843,0.0352
13.8500,-4.1073,0.0362
13.8542,-4.1370,0.0365
13.8583,-4.1636,0.0375
13.8625,-4.1961,0.0379
13.8667,-4.2263,0.0389
13.8708,-4.2619,0.0394
13.8750,-4.2958,0.0403
13.8792,-4.3344,0.0409
13.8833,-4.3721,0.0419
13.8875,-4.4139,0.0426
13.8917,-4.4553,0.0436
13.8958,-4.5005,0.0443
13.9000,-4.5457,0.0454
13.9042,-4.5942,0.0462
13.9083,-4.6433,0.0472
13.9125,-4.6953,0.0482
13.9167,-4.7482,0.0492
13.9208,-4.8038,0.0502
13.9250,-4.8605,0.0513
13.9292,-4.9196,0.0524
13.9333,-4.9801,0.0536
13.9375,-5.0428,0.0547
13.9417,-5.1071,0.0559
13.9458,-5.1734,0.0571
13.9500,-5.2414,0.0584
13.9542,-5.3131,0.0596
13.9583,-5.3872,0.0588
13.9625,-5.4553,0.0587
13.9667,-5.5236,0.0581
13.9708,-5.5876,0.0579
13.9750,-5.6509,0.0575
13.9792,-5.7111,0.0574
13.9833,-5.7701,0.0571
13.9875,-5.8267,0.0569
13.9917,-5.8820,0.0567
13.9958,-5.9353,0.0567
14.0000,-5.9876,0.0566
14.0042,-6.0382,0.0566
14.0083,-6.0879,0.0566
14.0125,-6.1363,0.0566
14.0167,-6.1840,0.0567
14.0208,-6.2307,0.0568
14.0250,-6.2767,0.0569
14.0292,-6.3221,0.0571
14.0333,-6.3671,0.0573
14.0375,-6.4116,0.0575
14.0417,-6.4559,0.0578
14.0458,-6.4999,0.0580
14.0500,-6.5439,0.0584
14.0542,-6.5878,0.0587
14.0583,-6.6319,0.0591
14.0625,-6.6761,0.0595
14.0667,-6.7207,0.0600
14.0708,-6.7655,0.0605
14.0750,-6.8108,0.0610
14.0792,-6.8566,0.0615
14.0833,-6.9030,0.0621
14.0875,-6.9500,0.0627
14.0917,-6.9999,0.0633
14.0958,-7.0508,0.0618
14.1000,-7.0930,0.0611
14.1042,-7.1346,0.0598
14.1083,-7.1691,0.0591
14.1125,-7.2023,0.0580
14.1167,-7.2293,0.0572
14.1208,-7.2548,0.0562
14.1250,-7.2749,0.0555
14.1292,-7.2935,0.0546
14.1333,-7.3071,0.0540
14.1375,-7.3194,0.0531
14.1417,-7.3272,0.0525
14.1458,-7.3338,0.0517
14.1500,-7.3363,0.0512
14.1542,-7.3379,0.0505
14.1583,-7.3356,0.0500
14.1625,-7.3327,0.0493
14.1667,-7.3261,0.0488
14.1708,-7.3194,0.0482
14.1750,-7.3089,0.0478
14.1792,-7.2988,0.0471
14.1833,-7.2850,0.0468
14.1875,-7.2718,0.0462
14.1917,-7.2551,0.0459
14.1958,-7.2394,0.0453
14.2000,-7.2201,0.0451
14.2042,-7.2023,0.0445
14.2083,-7.1808,0.0443
14.2125,-7.1613,0.0437
14.2167,-7.1378,0.0436
14.2208,-7.1170,0.0430
14.2250,-7.0918,0.0430
14.2292,-7.0700,0.0424
14.2333,-7.0435,0.0424
14.2375,-7.0210,0.0418
14.2417,-6.9934,0.0419
14.2458,-6.9706,0.0413
14.2500,-6.9421,0.0414
14.2542,-6.9192,0.0408
14.2583,-6.8899,0.0411
14.2625,-6.8674,0.0404
14.2667,-6.8375,0.0408
14.2708,-6.8156,0.0400
14.2750,-6.7852,0.0405
14.2792,-6.7643,0.0397
14.2833,-6.7336,0.0403
14.2875,-6.7139,0.0394
14.2917,-6.6828,0.0402
14.2958,-6.6647,0.0392
14.3000,-6.6335,0.0402
14.3042,-6.6173,0.0391
14.3083,-6.5858,0.0402
14.3125,-6.5719,0.0389
14.3167,-6.5402,0.0403
14.3208,-6.5290,0.0389
14.3250,-6.4970,0.0405
14.3292,-6.4888,0.0388
14.3333,-6.4565,0.0408
14.3375,-6.4518,0.0389
14.3417,-6.4191,0.0411
14.3458,-6.4182,0.0389
14.3500,-6.3849,0.0416
14.3542,-6.3885,0.0390
14.3583,-6.3544,0.0421
14.3625,-6.3628,0.0392
14.3667,-6.3278,0.0427
14.3708,-6.3414,0.0394
14.3750,-6.3054,0.0435
14.3792,-6.3248,0.0396
14.3833,-6.2874,0.0443
14.3875,-6.3130,0.0399
14.3917,-6.2742,0.0452
14.3958,-6.3063,0.0402
14.4000,-6.2660,0.0463
14.4042,-6.2997,0.0406
14.4083,-6.2603,0.0472
14.4125,-6.2949,0.0412
14.4167,-6.2587,0.0481
14.4208,-6.2955,0.0421
14.4250,-6.2632,0.0490
14.4292,-6.3028,0.0431
14.4333,-6.2747,0.0500
14.4375,-6.3173,0.0443
14.4417,-6.2938,0.0511
14.4458,-6.3397,0.0456
14.4500,-6.3209,0.0524
14.4542,-6.3701,0.0470
14.4583,-6.3563,0.0537
14.4625,-6.4090,0.0485
14.4667,-6.4003,0.0551
14.4708,-6.4566,0.0501
14.4750,-6.4551,0.0549
14.4792,-6.5115,0.0501
14.4833,-6.5094,0.0527
14.4875,-6.5535,0.0487
14.4917,-6.5485,0.0508
14.4958,-6.5829,0.0473
14.5000,-6.5738,0.0492
14.5042,-6.6004,0.0459
14.5083,-6.5869,0.0476
14.5125,-6.6069,0.0446
14.5167,-6.5887,0.0462
14.5208,-6.6034,0.0432
14.5250,-6.5806,0.0450
14.5292,-6.5908,0.0420
14.5333,-6.5635,0.0438
14.5375,-6.5700,0.0408
14.5417,-6.5383,0.0427
14.5458,-6.5419,0.0396
14.5500,-6.5060,0.0416
14.5542,-6.5073,0.0385
14.5583,-6.4674,0.0407
14.5625,-6.4669,0.0375
14.5667,-6.4232,0.0398
14.5708,-6.4214,0.0364
14.5750,-6.3741,0.0390
14.5792,-6.3715,0.0355
14.5833,-6.3207,0.0382
14.5875,-6.3178,0.0345
14.5917,-6.2637,0.0375
14.5958,-6.2607,0.0336
14.6000,-6.2036,0.0369
14.6042,-6.2009,0.0328
14.6083,-6.1409,0.0362
14.6125,-6.1388,0.0319
14.6167,-6.0761,0.0357
14.6208,-6.0748,0.0312
14.6250,-6.0095,0.0351
14.6292,-6.0093,0.0304
14.6333,-5.9417,0.0346
14.6375,-5.9427,0.0297
14.6417,-5.8730,0.0342
14.6458,-5.8752,0.0291
14.6500,-5.8047,0.0338
14.6542,-5.8078,0.0285
14.6583,-5.7380,0.0333
14.6625,-5.7410,0.0280
14.6667,-5.6712,0.0329
14.6708,-5.6742,0.0276
14.6750,-5.6045,0.0325
14.6792,-5.6075,0.0272
14.6833,-5.5381,0.0320
14.6875,-5.5411,0.0269
14.6917,-5.4720,0.0317
14.6958,-5.4753,0.0265
14.7000,-5.4066,0.0313
14.7042,-5.4102,0.0263
14.7083,-5.3421,0.0310
14.7125,-5.3462,0.0260
14.7167,-5.2787,0.0307
14.7208,-5.2833,0.0258
14.7250,-5.2166,0.0305
14.7292,-5.2218,0.0256
14.7333,-5.1559,0.0303
14.7375,-5.1618,0.0254
14.7417,-5.0969,0.0301
14.7458,-5.1037,0.0253
14.7500,-5.0397,0.0300
14.7542,-5.0474,0.0252
14.7583,-4.9845,0.0299
14.7625,-4.9933,0.0252
14.7667,-4.9315,0.0298
14.7708,-4.9414,0.0251
14.7750,-4.8809,0.0298
14.7792,-4.8920,0.0252
14.7833,-4.8328,0.0298
14.7875,-4.8451,0.0252
14.7917,-4.7873,0.0299
14.7958,-4.8011,0.0253
14.8000,-4.7447,0.0300
14.8042,-4.7600,0.0255
14.8083,-4.7051,0.0301
14.8125,-4.7219,0.0256
14.8167,-4.6686,0.0303
14.8208,-4.6872,0.0259
14.8250,-4.6354,0.0306
14.8292,-4.6558,0.0261
14.8333,-4.6059,0.0309
14.8375,-4.6280,0.0264
14.8417,-4.5801,0.0312
14.8458,-4.6041,0.0268
14.8500,-4.5584,0.0316
14.8542,-4.5842,0.0273
14.8583,-4.5409,0.0320
14.8625,-4.5685,0.0277
14.8667,-4.5277,0.0325
14.8708,-4.5571,0.0283
14.8750,-4.5192,0.0330
14.8792,-4.5503,0.0289
14.8833,-4.5154,0.0336
14.8875,-4.5482,0.0296
14.8917,-4.5165,0.0342
14.8958,-4.5510,0.0304
14.9000,-4.5229,0.0349
14.9042,-4.5589,0.0312
14.9083,-4.5346,0.0357
14.9125,-4.5722,0.0321
14.9167,-4.5519,0.0365
14.9208,-4.5909,0.0331
14.9250,-4.5751,0.0374
14.9292,-4.6154,0.0342
14.9333,-4.6042,0.0383
14.9375,-4.6459,0.0354
14.9417,-4.6396,0.0393
14.9458,-4.6825,0.0367
14.9500,-4.6813,0.0404
14.9542,-4.7255,0.0380
14.9583,-4.7297,0.0415
14.9625,-4.7751,0.0395
14.9667,-4.7849,0.0428
14.9708,-4.8315,0.0410
14.9750,-4.8469,0.0441
14.9792,-4.8949,0.0427
14.9833,-4.9161,0.0455
14.9875,-4.9655,0.0444
14.9917,-4.9924,0.0470
14.9958,-5.0434,0.0463
15.0000,-5.0761,0.0486
15.0042,-5.1288,0.0482
15.0083,-5.1670,0.0504
15.0125,-5.2217,0.0503
15.0167,-5.2654,0.0522
15.0208,-5.3223,0.0524
15.0250,-5.3712,0.0542
15.0292,-5.4305,0.0546
15.0333,-5.4844,0.0563
15.0375,-5.5464,0.0570
15.0417,-5.6069,0.0584
15.0458,-5.6737,0.0573
15.0500,-5.7308,0.0572
15.0542,-5.7905,0.0564
15.0583,-5.8436,0.0562
15.0625,-5.8974,0.0556
15.0667,-5.9464,0.0554
15.0708,-5.9953,0.0550
15.0750,-6.0404,0.0548
15.0792,-6.0851,0.0544
15.0833,-6.1267,0.0543
15.0875,-6.1678,0.0540
15.0917,-6.2064,0.0539
15.0958,-6.2445,0.0537
15.1000,-6.2805,0.0537
15.1042,-6.3161,0.0536
15.1083,-6.3500,0.0536
15.1125,-6.3836,0.0535
15.1167,-6.4159,0.0536
15.1208,-6.4479,0.0536
15.1250,-6.4790,0.0537
15.1292,-6.5099,0.0538
15.1333,-6.5402,0.0540
15.1375,-6.5705,0.0541
15.1417,-6.6004,0.0543
15.1458,-6.6304,0.0545
15.1500,-6.6603,0.0548
15.1542,-6.6905,0.0551
15.1583,-6.7208,0.0554
15.1625,-6.7515,0.0557
15.1667,-6.7824,0.0561
15.1708,-6.8139,0.0565
15.1750,-6.8458,0.0569
15.1792,-6.8785,0.0574
15.1833,-6.9117,0.0578
15.1875,-6.9458,0.0583
15.1917,-6.9805,0.0589
15.1958,-7.0163,0.0594
15.2000,-7.0549,0.0596
15.2042,-7.0928,0.0582
15.2083,-7.1229,0.0574
15.2125,-7.1516,0.0561
15.2167,-7.1735,0.0553
15.2208,-7.1937,0.0541
15.2250,-7.2078,0.0533
15.2292,-7.2204,0.0523
15.2333,-7.2272,0.0515
15.2375,-7.2327,0.0505
15.2417,-7.2329,0.0498
15.2458,-7.2319,0.0488
15.2500,-7.2260,0.0482
15.2542,-7.2193,0.0472
15.2583,-7.2077,0.0466
15.2625,-7.1957,0.0457
15.2667,-7.1791,0.0452
15.2708,-7.1624,0.0443
15.2750,-7.1412,0.0438
15.2792,-7.1203,0.0429
15.2833,-7.0948,0.0424
15.2875,-7.0701,0.0416
15.2917,-7.0408,0.0411
15.2958,-7.0128,0.0403
15.3000,-6.9801,0.0399
15.3042,-6.9491,0.0391
15.3083,-6.9132,0.0387
15.3125,-6.8796,0.0379
15.3167,-6.8410,0.0376
15.3208,-6.8051,0.0367
15.3250,-6.7638,0.0365
15.3292,-6.7260,0.0356
15.3333,-6.6824,0.0354
15.3375,-6.6428,0.0346
15.3417,-6.5972,0.0344
15.3458,-6.5561,0.0335
15.3500,-6.5086,0.0334
15.3542,-6.4662,0.0325
15.3583,-6.4171,0.0325
15.3625,-6.3736,0.0315
15.3667,-6.3230,0.0315
15.3708,-6.2785,0.0306
15.3750,-6.2267,0.0306
15.3792,-6.1814,0.0297
15.3833,-6.1284,0.0297
15.3875,-6.0825,0.0288
15.3917,-6.0286,0.0288
15.3958,-5.9820,0.0279
15.4000,-5.9273,0.0280
15.4042,-5.8803,0.0270
15.4083,-5.8249,0.0272
15.4125,-5.7774,0.0262
15.4167,-5.7215,0.0264
15.4208,-5.6737,0.0254
15.4250,-5.6173,0.0256
15.4292,-5.5693,0.0246
15.4333,-5.5126,0.0248
15.4375,-5.4642,0.0238
15.4417,-5.4074,0.0240
15.4458,-5.3588,0.0231
15.4500,-5.3019,0.0232
15.4542,-5.2531,0.0223
15.4583,-5.1961,0.0225
15.4625,-5.1472,0.0216
15.4667,-5.0902,0.0217
15.4708,-5.0411,0.0209
15.4750,-4.9844,0.0210
15.4792,-4.9351,0.0202
15.4833,-4.8785,0.0203
15.4875,-4.8291,0.0195
15.4917,-4.7728,0.0196
15.4958,-4.7216,0.0213
15.5000,-4.6801,0.0231
15.5042,-4.6457,0.0243
15.5083,-4.6161,0.0258
15.5125,-4.5938,0.0271
15.5167,-4.5758,0.0286
15.5208,-4.5652,0.0299
15.5250,-4.5585,0.0313
15.5292,-4.5599,0.0309
15.5333,-4.5540,0.0311
15.5375,-4.5540,0.0305
15.5417,-4.5469,0.0307
15.5458,-4.5456,0.0302
15.5500,-4.5377,0.0304
15.5542,-4.5353,0.0299
15.5583,-4.5267,0.0301
15.5625,-4.5235,0.0297
15.5667,-4.5145,0.0299
15.5708,-4.5108,0.0295
15.5750,-4.5015,0.0298
15.5792,-4.4974,0.0294
15.5833,-4.4881,0.0296
15.5875,-4.4840,0.0293
15.5917,-4.4747,0.0296
15.5958,-4.4707,0.0293
15.6000,-4.4618,0.0296
15.6042,-4.4580,0.0293
15.6083,-4.4496,0.0296
15.6125,-4.4464,0.0294
15.6167,-4.4386,0.0297
15.6208,-4.4360,0.0295
15.6250,-4.4291,0.0299
15.6292,-4.4272,0.0297
15.6333,-4.4213,0.0301
15.6375,-4.4204,0.0299
15.6417,-4.4156,0.0303
15.6458,-4.4158,0.0302
15.6500,-4.4124,0.0307
15.6542,-4.4139,0.0306
15.6583,-4.4119,0.0310
15.6625,-4.4147,0.0310
15.6667,-4.4143,0.0315
15.6708,-4.4188,0.0315
15.6750,-4.4201,0.0320
15.6792,-4.4263,0.0320
15.6833,-4.4295,0.0325
15.6875,-4.4374,0.0326
15.6917,-4.4427,0.0332
15.6958,-4.4526,0.0333
15.7000,-4.4601,0.0339
15.7042,-4.4721,0.0340
15.7083,-4.4819,0.0346
15.7125,-4.4961,0.0348
15.7167,-4.5084,0.0355
15.7208,-4.5249,0.0357
15.7250,-4.5398,0.0364
15.7292,-4.5588,0.0367
15.7333,-4.5765,0.0374
15.7375,-4.5981,0.0378
15.7417,-4.6186,0.0385
15.7458,-4.6429,0.0389
15.7500,-4.6664,0.0396
15.7542,-4.6936,0.0401
15.7583,-4.7202,0.0409
15.7625,-4.7503,0.0414
15.7667,-4.7802,0.0422
15.7708,-4.8133,0.0428
15.7750,-4.8465,0.0437
15.7792,-4.8828,0.0443
15.7833,-4.9195,0.0452
15.7875,-4.9591,0.0459
15.7917,-4.9992,0.0468
15.7958,-5.0421,0.0476
15.8000,-5.0859,0.0486
15.8042,-5.1322,0.0494
15.8083,-5.1796,0.0504
15.8125,-5.2294,0.0514
15.8167,-5.2805,0.0524
15.8208,-5.3338,0.0534
15.8250,-5.3885,0.0545
15.8292,-5.4454,0.0555
15.8333,-5.5039,0.0567
15.8375,-5.5643,0.0578
15.8417,-5.6283,0.0589
15.8458,-5.6947,0.0580
15.8500,-5.7543,0.0577
15.8542,-5.8142,0.0571
15.8583,-5.8693,0.0568
15.8625,-5.9238,0.0563
15.8667,-5.9745,0.0560
15.8708,-6.0242,0.0556
15.8750,-6.0709,0.0554
15.8792,-6.1164,0.0551
15.8833,-6.1596,0.0549
15.8875,-6.2016,0.0547
15.8917,-6.2416,0.0545
15.8958,-6.2807,0.0544
15.9000,-6.3181,0.0543
15.9042,-6.3547,0.0542
15.9083,-6.3900,0.0542
15.9125,-6.4245,0.0542
15.9167,-6.4581,0.0542
15.9208,-6.4911,0.0543
15.9250,-6.5235,0.0544
15.9292,-6.5555,0.0545
15.9333,-6.5870,0.0546
15.9375,-6.6184,0.0548
15.9417,-6.6495,0.0550
15.9458,-6.6807,0.0553
15.9500,-6.7119,0.0555
15.9542,-6.7432,0.0558
15.9583,-6.7747,0.0561
15.9625,-6.8065,0.0565
15.9667,-6.8387,0.0569
15.9708,-6.8714,0.0573
15.9750,-6.9046,0.0577
15.9792,-6.9384,0.0582
15.9833,-6.9728,0.0587
15.9875,-7.0081,0.0592
15.9917,-7.0441,0.0598
15.9958,-7.0832,0.0599
16.0000,-7.1214,0.0585
16.0042,-7.1518,0.0576
16.0083,-7.1807,0.0564
16.0125,-7.2027,0.0555
16.0167,-7.2231,0.0544
16.0208,-7.2373,0.0535
16.0250,-7.2498,0.0525
16.0292,-7.2566,0.0517
16.0333,-7.2620,0.0507
16.0375,-7.2621,0.0499
16.0417,-7.2609,0.0490
16.0458,-7.2548,0.0483
16.0500,-7.2478,0.0474
16.0542,-7.2359,0.0467
16.0583,-7.2236,0.0458
16.0625,-7.2066,0.0452
16.0667,-7.1894,0.0443
16.0708,-7.1677,0.0438
16.0750,-7.1463,0.0429
16.0792,-7.1203,0.0424
16.0833,-7.0950,0.0416
16.0875,-7.0651,0.0411
16.0917,-7.0364,0.0403
16.0958,-7.0030,0.0399
16.1000,-6.9712,0.0390
16.1042,-6.9346,0.0387
16.1083,-6.9002,0.0378
16.1125,-6.8607,0.0375
16.1167,-6.8239,0.0366
16.1208,-6.7818,0.0364
16.1250,-6.7429,0.0355
16.1292,-6.6984,0.0353
16.1333,-6.6577,0.0344
16.1375,-6.6111,0.0342
16.1417,-6.5688,0.0333
16.1458,-6.5203,0.0332
16.1500,-6.4766,0.0323
16.1542,-6.4264,0.0322
16.1583,-6.3815,0.0313
16.1625,-6.3297,0.0312
16.1667,-6.2838,0.0303
16.1708,-6.2307,0.0303
16.1750,-6.1839,0.0293
16.1792,-6.1297,0.0293
16.1833,-6.0821,0.0284
16.1875,-6.0268,0.0284
16.1917,-5.9785,0.0275
16.1958,-5.9224,0.0275
16.2000,-5.8734,0.0266
16.2042,-5.8166,0.0266
16.2083,-5.7671,0.0257
16.2125,-5.7097,0.0258
16.2167,-5.6598,0.0248
16.2208,-5.6019,0.0249
16.2250,-5.5515,0.0240
16.2292,-5.4932,0.0241
16.2333,-5.4424,0.0232
16.2375,-5.3840,0.0232
16.2417,-5.3328,0.0223
16.2458,-5.2741,0.0224
16.2500,-5.2226,0.0215
16.2542,-5.1638,0.0216
16.2583,-5.1120,0.0207
16.2625,-5.0532,0.0208
16.2667,-5.0010,0.0200
16.2708,-4.9423,0.0200
16.2750,-4.8898,0.0192
16.2792,-4.8311,0.0192
16.2833,-4.7766,0.0214
16.2875,-4.7360,0.0224
16.2917,-4.6948,0.0243
16.2958,-4.6668,0.0250
16.3000,-4.6364,0.0270
16.3042,-4.6211,0.0276
16.3083,-4.6010,0.0298
16.3125,-4.5981,0.0303
16.3167,-4.5878,0.0327
16.3208,-4.5986,0.0311
16.3250,-4.5870,0.0325
16.3292,-4.5975,0.0309
16.3333,-4.5850,0.0321
16.3375,-4.5934,0.0305
16.3417,-4.5802,0.0317
16.3458,-4.5869,0.0302
16.3500,-4.5731,0.0314
16.3542,-4.5785,0.0300
16.3583,-4.5643,0.0311
16.3625,-4.5687,0.0298
16.3667,-4.5542,0.0309
16.3708,-4.5578,0.0297
16.3750,-4.5434,0.0307
16.3792,-4.5464,0.0296
16.3833,-4.5322,0.0306
16.3875,-4.5349,0.0295
16.3917,-4.5210,0.0306
16.3958,-4.5237,0.0295
16.4000,-4.5103,0.0306
16.4042,-4.5131,0.0296
16.4083,-4.5004,0.0306
16.4125,-4.5036,0.0297
16.4167,-4.4917,0.0307
16.4208,-4.4954,0.0299
16.4250,-4.4845,0.0309
16.4292,-4.4889,0.0301
16.4333,-4.4792,0.0311
16.4375,-4.4845,0.0304
16.4417,-4.4760,0.0314
16.4458,-4.4824,0.0307
16.4500,-4.4754,0.0318
16.4542,-4.4830,0.0311
16.4583,-4.4777,0.0322
16.4625,-4.4866,0.0315
16.4667,-4.4830,0.0326
16.4708,-4.4934,0.0321
16.4750,-4.4918,0.0332
16.4792,-4.5038,0.0326
16.4833,-4.5043,0.0338
16.4875,-4.5180,0.0333
16.4917,-4.5208,0.0344
16.4958,-4.5364,0.0340
16.5000,-4.5417,0.0352
16.5042,-4.5592,0.0348
16.5083,-4.5671,0.0360
16.5125,-4.5867,0.0357
16.5167,-4.5974,0.0369
16.5208,-4.6192,0.0367
16.5250,-4.6328,0.0378
16.5292,-4.6568,0.0377
16.5333,-4.6735,0.0389
16.5375,-4.7000,0.0389
16.5417,-4.7199,0.0400
16.5458,-4.7489,0.0401
16.5500,-4.7722,0.0412
16.5542,-4.8038,0.0414
16.5583,-4.8306,0.0425
16.5625,-4.8649,0.0428
16.5667,-4.8953,0.0439
16.5708,-4.9325,0.0443
16.5750,-4.9666,0.0454
16.5792,-5.0067,0.0459
16.5833,-5.0445,0.0470
16.5875,-5.0877,0.0476
16.5917,-5.1293,0.0487
16.5958,-5.1757,0.0494
16.6000,-5.2212,0.0505
16.6042,-5.2708,0.0513
16.6083,-5.3201,0.0524
16.6125,-5.3730,0.0533
16.6167,-5.4263,0.0544
16.6208,-5.4826,0.0554
16.6250,-5.5396,0.0566
16.6292,-5.5994,0.0576
16.6333,-5.6620,0.0587
16.6375,-5.7274,0.0578
16.6417,-5.7858,0.0575
16.6458,-5.8446,0.0569
16.6500,-5.8983,0.0566
16.6542,-5.9516,0.0560
16.6583,-6.0009,0.0558
16.6625,-6.0493,0.0553
16.6667,-6.0946,0.0551
16.6708,-6.1388,0.0548
16.6750,-6.1805,0.0546
16.6792,-6.2211,0.0543
16.6833,-6.2596,0.0542
16.6875,-6.2972,0.0540
16.6917,-6.3330,0.0539
16.6958,-6.3681,0.0538
16.7000,-6.4016,0.0538
16.7042,-6.4347,0.0538
16.7083,-6.4665,0.0538
16.7125,-6.4980,0.0538
16.7167,-6.5285,0.0539
16.7208,-6.5589,0.0540
16.7250,-6.5886,0.0541
16.7292,-6.6183,0.0543
16.7333,-6.6476,0.0545
16.7375,-6.6771,0.0547
16.7417,-6.7063,0.0549
16.7458,-6.7358,0.0552
16.7500,-6.7653,0.0555
16.7542,-6.7953,0.0558
16.7583,-6.8255,0.0562
16.7625,-6.8563,0.0565
16.7667,-6.8874,0.0570
16.7708,-6.9193,0.0574
16.7750,-6.9516,0.0579
16.7792,-6.9849,0.0584
16.7833,-7.0188,0.0589
16.7875,-7.0537,0.0594
16.7917,-7.0915,0.0596
16.7958,-7.1285,0.0582
16.8000,-7.1576,0.0573
16.8042,-7.1854,0.0561
16.8083,-7.2062,0.0552
16.8125,-7.2254,0.0540
16.8167,-7.2384,0.0532
16.8208,-7.2499,0.0521
16.8250,-7.2555,0.0514
16.8292,-7.2598,0.0503
16.8333,-7.2588,0.0496
16.8375,-7.2566,0.0486
16.8417,-7.2494,0.0480
16.8458,-7.2413,0.0470
16.8500,-7.2284,0.0464
16.8542,-7.2151,0.0455
16.8583,-7.1970,0.0449
16.8625,-7.1789,0.0440
16.8667,-7.1561,0.0435
16.8708,-7.1338,0.0426
16.8750,-7.1067,0.0421
16.8792,-7.0805,0.0412
16.8833,-7.0496,0.0408
16.8875,-7.0200,0.0399
16.8917,-6.9855,0.0395
16.8958,-6.9529,0.0386
16.9000,-6.9152,0.0383
16.9042,-6.8799,0.0374
16.9083,-6.8393,0.0371
16.9125,-6.8016,0.0362
16.9167,-6.7583,0.0359
16.9208,-6.7185,0.0351
16.9250,-6.6729,0.0348
16.9292,-6.6313,0.0339
16.9333,-6.5835,0.0338
16.9375,-6.5403,0.0328
16.9417,-6.4906,0.0327
16.9458,-6.4460,0.0318
16.9500,-6.3946,0.0317
16.9542,-6.3487,0.0307
16.9583,-6.2957,0.0307
16.9625,-6.2487,0.0297
16.9667,-6.1944,0.0297
16.9708,-6.1465,0.0287
16.9750,-6.0910,0.0287
16.9792,-6.0421,0.0278
16.9833,-5.9856,0.0278
16.9875,-5.9360,0.0268
16.9917,-5.8786,0.0269
16.9958,-5.8283,0.0259
17.0000,-5.7702,0.0259
17.0042,-5.7192,0.0250
17.0083,-5.6605,0.0250
17.0125,-5.6090,0.0241
17.0167,-5.5497,0.0241
17.0208,-5.4976,0.0232
17.0250,-5.4380,0.0232
17.0292,-5.3854,0.0223
17.0333,-5.3255,0.0224
17.0375,-5.2724,0.0215
17.0417,-5.2122,0.0215
17.0458,-5.1586,0.0206
17.0500,-5.0984,0.0206
17.0542,-5.0443,0.0198
17.0583,-4.9840,0.0198
17.0625,-4.9295,0.0190
17.0667,-4.8674,0.0218
17.0708,-4.8294,0.0221
17.0750,-4.7811,0.0247
17.0792,-4.7570,0.0245
17.0833,-4.7178,0.0275
17.0875,-4.7078,0.0269
17.0917,-4.6769,0.0304
17.0958,-4.6813,0.0294
17.1000,-4.6579,0.0335
17.1042,-4.6778,0.0299
17.1083,-4.6504,0.0331
17.1125,-4.6713,0.0299
17.1167,-4.6436,0.0326
17.1208,-4.6616,0.0295
17.1250,-4.6336,0.0321
17.1292,-4.6492,0.0291
17.1333,-4.6210,0.0316
17.1375,-4.6346,0.0289
17.1417,-4.6063,0.0313
17.1458,-4.6184,0.0286
17.1500,-4.5901,0.0310
17.1542,-4.6009,0.0284
17.1583,-4.5727,0.0307
17.1625,-4.5826,0.0282
17.1667,-4.5547,0.0305
17.1708,-4.5638,0.0281
17.1750,-4.5364,0.0303
17.1792,-4.5450,0.0280
17.1833,-4.5182,0.0302
17.1875,-4.5266,0.0280
17.1917,-4.5004,0.0302
17.1958,-4.5088,0.0280
17.2000,-4.4835,0.0302
17.2042,-4.4920,0.0281
17.2083,-4.4678,0.0302
17.2125,-4.4766,0.0282
17.2167,-4.4535,0.0303
17.2208,-4.4628,0.0284
17.2250,-4.4410,0.0305
17.2292,-4.4509,0.0286
17.2333,-4.4306,0.0307
17.2375,-4.4413,0.0289
17.2417,-4.4226,0.0309
17.2458,-4.4342,0.0292
17.2500,-4.4173,0.0312
17.2542,-4.4300,0.0296
17.2583,-4.4150,0.0316
17.2625,-4.4288,0.0301
17.2667,-4.4159,0.0321
17.2708,-4.4310,0.0306
17.2750,-4.4204,0.0325
17.2792,-4.4368,0.0312
17.2833,-4.4286,0.0331
17.2875,-4.4465,0.0318
17.2917,-4.4409,0.0337
17.2958,-4.4603,0.0325
17.3000,-4.4575,0.0344
17.3042,-4.4786,0.0333
17.3083,-4.4787,0.0352
17.3125,-4.5016,0.0342
17.3167,-4.5048,0.0360
17.3208,-4.5295,0.0351
17.3250,-4.5360,0.0369
17.3292,-4.5626,0.0361
17.3333,-4.5725,0.0378
17.3375,-4.6011,0.0372
17.3417,-4.6147,0.0389
17.3458,-4.6454,0.0384
17.3500,-4.6627,0.0400
17.3542,-4.6956,0.0397
17.3583,-4.7167,0.0413
17.3625,-4.7519,0.0411
17.3667,-4.7771,0.0426
17.3708,-4.8147,0.0425
17.3750,-4.8439,0.0440
17.3792,-4.8840,0.0441
17.3833,-4.9173,0.0455
17.3875,-4.9602,0.0458
17.3917,-4.9977,0.0471
17.3958,-5.0433,0.0475
17.4000,-5.0849,0.0488
17.4042,-5.1335,0.0494
17.4083,-5.1793,0.0507
17.4125,-5.2309,0.0513
17.4167,-5.2808,0.0526
17.4208,-5.3356,0.0534
17.4250,-5.3896,0.0547
17.4292,-5.4476,0.0556
17.4333,-5.5056,0.0568
17.4375,-5.5670,0.0579
17.4417,-5.6308,0.0591
17.4458,-5.6980,0.0582
17.4500,-5.7578,0.0579
17.4542,-5.8185,0.0573
17.4583,-5.8739,0.0570
17.4625,-5.9290,0.0565
17.4667,-5.9801,0.0562
17.4708,-6.0304,0.0558
17.4750,-6.0776,0.0556
17.4792,-6.1238,0.0553
17.4833,-6.1675,0.0551
17.4875,-6.2102,0.0549
17.4917,-6.2508,0.0548
17.4958,-6.2905,0.0547
17.5000,-6.3285,0.0546
17.5042,-6.3658,0.0545
17.5083,-6.4017,0.0545
17.5125,-6.4371,0.0545
17.5167,-6.4714,0.0546
17.5208,-6.5053,0.0546
17.5250,-6.5383,0.0547
17.5292,-6.5711,0.0548
17.5333,-6.6034,0.0550
17.5375,-6.6357,0.0552
17.5417,-6.6676,0.0554
17.5458,-6.6996,0.0556
17.5500,-6.7315,0.0559
17.5542,-6.7638,0.0562
17.5583,-6.7961,0.0566
17.5625,-6.8289,0.0569
17.5667,-6.8619,0.0573
17.5708,-6.8955,0.0577
17.5750,-6.9296,0.0582
17.5792,-6.9644,0.0587
17.5833,-6.9998,0.0592
17.5875,-7.0360,0.0597
17.5917,-7.0730,0.0603
17.5958,-7.1131,0.0606
17.6000,-7.1529,0.0592
17.6042,-7.1845,0.0583
17.6083,-7.2150,0.0570
17.6125,-7.2384,0.0562
17.6167,-7.2604,0.0551
17.6208,-7.2760,0.0543
17.6250,-7.2903,0.0532
17.6292,-7.2987,0.0525
17.6333,-7.3059,0.0514
17.6375,-7.3076,0.0507
17.6417,-7.3084,0.0498
17.6458,-7.3040,0.0491
17.6500,-7.2990,0.0482
17.6542,-7.2891,0.0476
17.6583,-7.2788,0.0467
17.6625,-7.2638,0.0462
17.6667,-7.2489,0.0453
17.6708,-7.2293,0.0448
17.6750,-7.2102,0.0440
17.6792,-7.1864,0.0435
17.6833,-7.1636,0.0427
17.6875,-7.1361,0.0423
17.6917,-7.1100,0.0415
17.6958,-7.0791,0.0411
17.7000,-7.0501,0.0403
17.7042,-7.0161,0.0400
17.7083,-6.9846,0.0391
17.7125,-6.9479,0.0389
17.7167,-6.9142,0.0380
17.7208,-6.8749,0.0378
17.7250,-6.8394,0.0370
17.7292,-6.7979,0.0368
17.7333,-6.7607,0.0360
17.7375,-6.7173,0.0359
17.7417,-6.6788,0.0350
17.7458,-6.6336,0.0349
17.7500,-6.5939,0.0340
17.7542,-6.5471,0.0341
17.7583,-6.5065,0.0331
17.7625,-6.4584,0.0332
17.7667,-6.4171,0.0323
17.7708,-6.3677,0.0324
17.7750,-6.3259,0.0314
17.7792,-6.2754,0.0316
17.7833,-6.2332,0.0306
17.7875,-6.1819,0.0308
17.7917,-6.1393,0.0298
17.7958,-6.0873,0.0301
17.8000,-6.0446,0.0291
17.8042,-5.9919,0.0293
17.8083,-5.9491,0.0283
17.8125,-5.8960,0.0286
17.8167,-5.8532,0.0276
17.8208,-5.7998,0.0280
17.8250,-5.7571,0.0269
17.8292,-5.7035,0.0273
17.8333,-5.6609,0.0263
17.8375,-5.6072,0.0267
17.8417,-5.5649,0.0256
17.8458,-5.5111,0.0261
17.8500,-5.4690,0.0250
17.8542,-5.4154,0.0255
17.8583,-5.3736,0.0244
17.8625,-5.3202,0.0249
17.8667,-5.2788,0.0239
17.8708,-5.2256,0.0244
17.8750,-5.1845,0.0233
17.8792,-5.1317,0.0238
17.8833,-5.0911,0.0228
17.8875,-5.0387,0.0233
17.8917,-4.9985,0.0223
17.8958,-4.9467,0.0228
17.9000,-4.9068,0.0218
17.9042,-4.8556,0.0223
17.9083,-4.8162,0.0213
17.9125,-4.7656,0.0218
17.9167,-4.7267,0.0209
17.9208,-4.6768,0.0214
17.9250,-4.6383,0.0205
17.9292,-4.5892,0.0209
17.9333,-4.5512,0.0200
17.9375,-4.5029,0.0205
17.9417,-4.4654,0.0196
17.9458,-4.4179,0.0201
17.9500,-4.3793,0.0218
17.9542,-4.3472,0.0237
17.9583,-4.3245,0.0249
17.9625,-4.3048,0.0267
17.9667,-4.2962,0.0262
17.9708,-4.2787,0.0268
17.9750,-4.2710,0.0261
17.9792,-4.2534,0.0266
17.9833,-4.2455,0.0259
17.9875,-4.2281,0.0264
17.9917,-4.2201,0.0258
17.9958,-4.2029,0.0263
18.0000,-4.1950,0.0257
18.0042,-4.1783,0.0262
18.0083,-4.1706,0.0257
18.0125,-4.1545,0.0262
18.0167,-4.1472,0.0257
18.0208,-4.1318,0.0262
18.0250,-4.1250,0.0257
18.0292,-4.1104,0.0262
18.0333,-4.1043,0.0258
18.0375,-4.0907,0.0263
18.0417,-4.0853,0.0259
18.0458,-4.0728,0.0265
18.0500,-4.0684,0.0261
18.0542,-4.0570,0.0266
18.0583,-4.0537,0.0263
18.0625,-4.0436,0.0269
18.0667,-4.0414,0.0266
18.0708,-4.0328,0.0272
18.0750,-4.0319,0.0269
18.0792,-4.0249,0.0275
18.0833,-4.0253,0.0273
18.0875,-4.0199,0.0279
18.0917,-4.0219,0.0277
18.0958,-4.0183,0.0283
18.1000,-4.0218,0.0282
18.1042,-4.0202,0.0288
18.1083,-4.0255,0.0287
18.1125,-4.0259,0.0293
18.1167,-4.0329,0.0293
18.1208,-4.0355,0.0300
18.1250,-4.0445,0.0299
18.1292,-4.0494,0.0306
18.1333,-4.0604,0.0307
18.1375,-4.0677,0.0314
18.1417,-4.0809,0.0315
18.1458,-4.0907,0.0322
18.1500,-4.1061,0.0323
18.1542,-4.1186,0.0330
18.1583,-4.1363,0.0332
18.1625,-4.1516,0.0340
18.1667,-4.1718,0.0342
18.1708,-4.1900,0.0350
18.1750,-4.2128,0.0353
18.1792,-4.2340,0.0361
18.1833,-4.2595,0.0365
18.1875,-4.2838,0.0373
18.1917,-4.3121,0.0377
18.1958,-4.3396,0.0385
18.2000,-4.3709,0.0391
18.2042,-4.4017,0.0399
18.2083,-4.4360,0.0405
18.2125,-4.4702,0.0414
18.2167,-4.5077,0.0420
18.2208,-4.5454,0.0429
18.2250,-4.5860,0.0436
18.2292,-4.6273,0.0446
18.2333,-4.6713,0.0453
18.2375,-4.7162,0.0463
18.2417,-4.7636,0.0472
18.2458,-4.8121,0.0482
18.2500,-4.8630,0.0491
18.2542,-4.9152,0.0501
18.2583,-4.9697,0.0511
18.2625,-5.0256,0.0522
18.2667,-5.0836,0.0533
18.2708,-5.1432,0.0544
18.2750,-5.2048,0.0555
18.2792,-5.2681,0.0567
18.2833,-5.3333,0.0579
18.2875,-5.4020,0.0590
18.2917,-5.4729,0.0582
18.2958,-5.5376,0.0580
18.3000,-5.6023,0.0574
18.3042,-5.6626,0.0571
18.3083,-5.7221,0.0567
18.3125,-5.7784,0.0565
18.3167,-5.8334,0.0561
18.3208,-5.8859,0.0560
18.3250,-5.9371,0.0557
18.3292,-5.9862,0.0556
18.3333,-6.0342,0.0554
18.3375,-6.0804,0.0554
18.3417,-6.1256,0.0553
18.3458,-6.1694,0.0553
18.3500,-6.2124,0.0553
18.3542,-6.2543,0.0553
18.3583,-6.2955,0.0554
18.3625,-6.3359,0.0555
18.3667,-6.3758,0.0556
18.3708,-6.4151,0.0558
18.3750,-6.4541,0.0560
18.3792,-6.4928,0.0562
18.3833,-6.5314,0.0565
18.3875,-6.5699,0.0568
18.3917,-6.6084,0.0571
18.3958,-6.6470,0.0574
18.4000,-6.6858,0.0578
18.4042,-6.7249,0.0582
18.4083,-6.7644,0.0587
18.4125,-6.8043,0.0591
18.4167,-6.8447,0.0596
18.4208,-6.8857,0.0602
18.4250,-6.9274,0.0607
18.4292,-6.9698,0.0613
18.4333,-7.0151,0.0617
18.4375,-7.0606,0.0603
18.4417,-7.0978,0.0594
18.4458,-7.1340,0.0582
18.4500,-7.1632,0.0574
18.4542,-7.1910,0.0563
18.4583,-7.2126,0.0555
18.4625,-7.2327,0.0545
18.4667,-7.2472,0.0538
18.4708,-7.2602,0.0528
18.4750,-7.2681,0.0521
18.4792,-7.2748,0.0512
18.4833,-7.2768,0.0506
18.4875,-7.2777,0.0498
18.4917,-7.2742,0.0492
18.4958,-7.2700,0.0484
18.5000,-7.2615,0.0478
18.5042,-7.2528,0.0471
18.5083,-7.2399,0.0466
18.5125,-7.2270,0.0458
18.5167,-7.2101,0.0454
18.5208,-7.1937,0.0447
18.5250,-7.1732,0.0443
18.5292,-7.1536,0.0436
18.5333,-7.1299,0.0432
18.5375,-7.1076,0.0425
18.5417,-7.0811,0.0423
18.5458,-7.0565,0.0416
18.5500,-7.0275,0.0413
18.5542,-7.0008,0.0406
18.5583,-6.9696,0.0405
18.5625,-6.9414,0.0398
18.5667,-6.9082,0.0396
18.5708,-6.8786,0.0389
18.5750,-6.8437,0.0389
18.5792,-6.8132,0.0381
18.5833,-6.7768,0.0382
18.5875,-6.7455,0.0374
18.5917,-6.7078,0.0375
18.5958,-6.6761,0.0367
18.6000,-6.6373,0.0369
18.6042,-6.6054,0.0361
18.6083,-6.5657,0.0363
18.6125,-6.5337,0.0354
18.6167,-6.4932,0.0358
18.6208,-6.4615,0.0349
18.6250,-6.4204,0.0353
18.6292,-6.3891,0.0343
18.6333,-6.3475,0.0348
18.6375,-6.3169,0.0339
18.6417,-6.2749,0.0345
18.6458,-6.2452,0.0334
18.6500,-6.2028,0.0341
18.6542,-6.1742,0.0330
18.6583,-6.1316,0.0338
18.6625,-6.1042,0.0326
18.6667,-6.0615,0.0336
18.6708,-6.0356,0.0323
18.6750,-5.9929,0.0333
18.6792,-5.9685,0.0320
18.6833,-5.9258,0.0332
18.6875,-5.9032,0.0317
18.6917,-5.8607,0.0331
18.6958,-5.8400,0.0315
18.7000,-5.7976,0.0330
18.7042,-5.7791,0.0314
18.7083,-5.7369,0.0330
18.7125,-5.7206,0.0312
18.7167,-5.6787,0.0330
18.7208,-5.6649,0.0311
18.7250,-5.6234,0.0331
18.7292,-5.6121,0.0311
18.7333,-5.5709,0.0332
18.7375,-5.5625,0.0311
18.7417,-5.5217,0.0334
18.7458,-5.5162,0.0311
18.7500,-5.4759,0.0337
18.7542,-5.4734,0.0312
18.7583,-5.4337,0.0339
18.7625,-5.4344,0.0314
18.7667,-5.3952,0.0343
18.7708,-5.3993,0.0316
18.7750,-5.3608,0.0347
18.7792,-5.3684,0.0318
18.7833,-5.3306,0.0352
18.7875,-5.3417,0.0321
18.7917,-5.3048,0.0357
18.7958,-5.3196,0.0325
18.8000,-5.2837,0.0363
18.8042,-5.3022,0.0329
18.8083,-5.2674,0.0369
18.8125,-5.2896,0.0334
18.8167,-5.2561,0.0376
18.8208,-5.2821,0.0340
18.8250,-5.2502,0.0384
18.8292,-5.2799,0.0346
18.8333,-5.2498,0.0393
18.8375,-5.2831,0.0353
18.8417,-5.2551,0.0401
18.8458,-5.2919,0.0362
18.8500,-5.2664,0.0411
18.8542,-5.3065,0.0371
18.8583,-5.2839,0.0421
18.8625,-5.3271,0.0381
18.8667,-5.3079,0.0432
18.8708,-5.3540,0.0392
18.8750,-5.3385,0.0443
18.8792,-5.3872,0.0404
18.8833,-5.3760,0.0455
18.8875,-5.4271,0.0417
18.8917,-5.4206,0.0468
18.8958,-5.4738,0.0432
18.9000,-5.4725,0.0481
18.9042,-5.5275,0.0448
18.9083,-5.5319,0.0495
18.9125,-5.5884,0.0465
18.9167,-5.5989,0.0510
18.9208,-5.6568,0.0483
18.9250,-5.7100,-0.0014
18.9292,-5.6065,0.0122
18.9333,-5.5316,0.0051
18.9375,-5.4415,0.0016
18.9417,-5.3503,-0.0628
18.9458,-5.2949,-0.1190
18.9500,-5.2409,-0.1560
18.9542,-5.1701,-0.1319
18.9583,-5.0881,-0.1131
18.9625,-5.0162,-0.1542
18.9667,-4.9490,-0.1887
18.9708,-4.8977,-0.2748
18.9750,-4.8397,-0.2895
18.9792,-4.7496,-0.3672
18.9833,-4.6317,-0.3119
18.9875,-4.5292,-0.3783
18.9917,-4.4378,-0.4324
18.9958,-4.7099,-0.7705
19.0000,-5.0752,-0.7983
19.0042,-5.3058,-0.6720
19.0083,-5.8483,-0.9172
19.0125,-6.4694,-0.9907
19.0167,-7.2591,-1.1122
19.0208,-8.2804,-1.2742
19.0250,-9.4647,-1.4135
19.0292,-10.3372,-1.1812
19.0333,-11.2045,-1.1782
19.0375,-12.0672,-1.1768
19.0417,-12.9256,-1.1576
19.0458,-13.7793,-1.1580
19.0500,-14.6282,-1.1574
19.0542,-15.4728,-1.1576
19.0583,-16.3137,-1.1585
19.0625,-17.1514,-1.1603
19.0667,-17.9866,-1.1402
19.0708,-18.8176,-1.1430
19.0750,-19.6447,-1.1468
19.0792,-20.4686,-1.1500
19.0833,-21.2900,-1.1541
19.0875,-22.1091,-1.1589
19.0917,-22.9289,-1.1390
19.0958,-23.7454,-1.1443
19.1000,-24.5580,-1.1517
19.1042,-25.3688,-1.1578
19.1083,-26.1781,-1.1647
19.1125,-26.9861,-1.1723
19.1167,-27.7983,-1.1522
19.1208,-28.6083,-1.1597
19.1250,-29.4150,-1.1697
19.1292,-30.2197,-1.1794
19.1333,-31.0239,-1.1889
19.1375,-31.8278,-1.1991
19.1417,-32.6404,-1.1786
19.1458,-33.4515,-1.1885
19.1500,-34.2587,-1.2014
19.1542,-35.0649,-1.2134
19.1583,-35.8712,-1.2253
19.1625,-36.6778,-1.2379
19.1667,-37.4985,-1.2161
19.1708,-38.3181,-1.2284
19.1750,-39.1370,-1.2413
19.1792,-39.9495,-1.2574
19.1833,-40.7619,-1.2718
