Time (s),Pitch (deg),Velocity (m/s)
0.0000,3.2127,-0.1031
0.0042,2.9188,-0.0907
0.0083,2.5579,-0.0861
0.0125,2.0973,-0.0722
0.0167,1.5123,-0.0581
0.0208,0.8763,-0.0505
0.0250,0.2331,-0.0469
0.0292,-0.4065,-0.0451
0.0333,-1.0441,-0.0440
0.0375,-1.7222,-0.0349
0.0417,-2.4136,-0.0282
0.0458,-3.0974,-0.0278
0.0500,-3.7719,-0.0280
0.0542,-4.4408,-0.0292
0.0583,-5.0942,-0.0305
0.0625,-5.7032,-0.0225
0.0667,-6.2929,-0.0231
0.0708,-6.8573,-0.0241
0.0750,-7.3584,-0.0212
0.0792,-7.8111,-0.0187
0.0833,-8.2000,-0.0152
0.0875,-8.5196,-0.0081
0.0917,-8.8012,-0.0059
0.0958,-8.9958,-0.0015
0.1000,-9.1015,0.0066
0.1042,-9.1214,0.0147
0.1083,-9.0656,0.0205
0.1125,-8.9562,0.0200
0.1167,-8.7976,0.0193
0.1208,-8.5868,0.0227
0.1250,-8.3619,0.0219
0.1292,-8.1568,0.0202
0.1333,-7.9852,0.0168
0.1375,-7.8542,0.0128
0.1417,-7.7644,0.0089
0.1458,-7.7099,0.0056
0.1500,-7.6800,0.0032
0.1542,-7.6642,0.0016
0.1583,-7.6552,0.0006
0.1625,-7.6486,-0.0001
0.1667,-7.6424,-0.0007
0.1708,-7.6356,-0.0011
0.1750,-7.6280,-0.0016
0.1792,-7.6197,-0.0021
0.1833,-7.6108,-0.0025
0.1875,-7.6016,-0.0030
0.1917,-7.5920,-0.0035
0.1958,-7.5823,-0.0041
0.2000,-7.5724,-0.0046
0.2042,-7.5625,-0.0051
0.2083,-7.5525,-0.0057
0.2125,-7.5425,-0.0062
0.2167,-7.5324,-0.0068
0.2208,-7.5223,-0.0073
0.2250,-7.5121,-0.0078
0.2292,-7.5021,-0.0084
0.2333,-7.4923,-0.0089
0.2375,-7.4825,-0.0094
0.2417,-7.4727,-0.0100
0.2458,-7.4630,-0.0105
0.2500,-7.4533,-0.0111
0.2542,-7.4437,-0.0116
0.2583,-7.4341,-0.0122
0.2625,-7.4245,-0.0127
0.2667,-7.4150,-0.0133
0.2708,-7.4054,-0.0139
0.2750,-7.3958,-0.0144
0.2792,-7.3862,-0.0150
0.2833,-7.3765,-0.0156
0.2875,-7.3667,-0.0162
0.2917,-7.3569,-0.0169
0.2958,-7.3470,-0.0175
0.3000,-7.3370,-0.0181
0.3042,-7.3269,-0.0188
0.3083,-7.3168,-0.0195
0.3125,-7.3065,-0.0202
0.3167,-7.2962,-0.0209
0.3208,-7.2857,-0.0216
0.3250,-7.2752,-0.0223
0.3292,-7.2645,-0.0230
0.3333,-7.2537,-0.0238
0.3375,-7.2428,-0.0246
0.3417,-7.2318,-0.0253
0.3458,-7.2207,-0.0261
0.3500,-7.2095,-0.0270
0.3542,-7.1981,-0.0278
0.3583,-7.1867,-0.0287
0.3625,-7.1751,-0.0295
0.3667,-7.1633,-0.0304
0.3708,-7.1514,-0.0314
0.3750,-7.1394,-0.0323
0.3792,-7.1273,-0.0332
0.3833,-7.1150,-0.0342
0.3875,-7.1026,-0.0352
0.3917,-7.0900,-0.0363
0.3958,-7.0773,-0.0373
0.4000,-7.0644,-0.0384
0.4042,-7.0513,-0.0395
0.4083,-7.0381,-0.0406
0.4125,-7.0237,-0.0397
0.4167,-7.0138,-0.0403
0.4208,-7.0042,-0.0406
0.4250,-6.9954,-0.0410
0.4292,-6.9872,-0.0414
0.4333,-6.9795,-0.0418
0.4375,-6.9721,-0.0422
0.4417,-6.9649,-0.0427
0.4458,-6.9580,-0.0431
0.4500,-6.9511,-0.0431
0.4542,-6.9452,-0.0434
0.4583,-6.9397,-0.0437
0.4625,-6.9344,-0.0440
0.4667,-6.9293,-0.0443
0.4708,-6.9244,-0.0446
0.4750,-6.9196,-0.0450
0.4792,-6.9148,-0.0454
0.4833,-6.9092,-0.0441
0.4875,-6.9074,-0.0439
0.4917,-6.9061,-0.0435
0.4958,-6.9057,-0.0431
0.5000,-6.9061,-0.0428
0.5042,-6.9070,-0.0425
0.5083,-6.9085,-0.0422
0.5125,-6.9104,-0.0418
0.5167,-6.9126,-0.0416
0.5208,-6.9151,-0.0413
0.5250,-6.9177,-0.0411
0.5292,-6.9205,-0.0408
0.5333,-6.9234,-0.0406
0.5375,-6.9262,-0.0404
0.5417,-6.9291,-0.0402
0.5458,-6.9319,-0.0401
0.5500,-6.9346,-0.0399
0.5542,-6.9372,-0.0398
0.5583,-6.9397,-0.0397
0.5625,-6.9420,-0.0397
0.5667,-6.9441,-0.0396
0.5708,-6.9460,-0.0396
0.5750,-6.9477,-0.0396
0.5792,-6.9492,-0.0396
0.5833,-6.9505,-0.0396
0.5875,-6.9514,-0.0397
0.5917,-6.9522,-0.0397
0.5958,-6.9526,-0.0398
0.6000,-6.9528,-0.0400
0.6042,-6.9528,-0.0401
0.6083,-6.9524,-0.0403
0.6125,-6.9518,-0.0405
0.6167,-6.9508,-0.0407
0.6208,-6.9496,-0.0409
0.6250,-6.9481,-0.0412
0.6292,-6.9463,-0.0414
0.6333,-6.9444,-0.0416
0.6375,-6.9423,-0.0419
0.6417,-6.9400,-0.0422
0.6458,-6.9375,-0.0425
0.6500,-6.9347,-0.0428
0.6542,-6.9317,-0.0432
0.6583,-6.9285,-0.0436
0.6625,-6.9250,-0.0440
0.6667,-6.9213,-0.0444
0.6708,-6.9172,-0.0449
0.6750,-6.9130,-0.0454
0.6792,-6.9084,-0.0459
0.6833,-6.9035,-0.0464
0.6875,-6.8984,-0.0470
0.6917,-6.8930,-0.0476
0.6958,-6.8872,-0.0482
0.7000,-6.8812,-0.0489
0.7042,-6.8749,-0.0496
0.7083,-6.8683,-0.0503
0.7125,-6.8614,-0.0510
0.7167,-6.8542,-0.0518
0.7208,-6.8466,-0.0526
0.7250,-6.8388,-0.0535
0.7292,-6.8306,-0.0544
0.7333,-6.8222,-0.0553
0.7375,-6.8134,-0.0562
0.7417,-6.8043,-0.0572
0.7458,-6.7949,-0.0582
0.7500,-6.7841,-0.0569
0.7542,-6.7780,-0.0575
0.7583,-6.7714,-0.0577
0.7625,-6.7655,-0.0580
0.7667,-6.7598,-0.0583
0.7708,-6.7544,-0.0586
0.7750,-6.7491,-0.0590
0.7792,-6.7438,-0.0589
0.7833,-6.7395,-0.0592
0.7875,-6.7353,-0.0594
0.7917,-6.7313,-0.0596
0.7958,-6.7275,-0.0599
0.8000,-6.7238,-0.0602
0.8042,-6.7192,-0.0586
0.8083,-6.7186,-0.0584
0.8125,-6.7180,-0.0579
0.8167,-6.7184,-0.0575
0.8208,-6.7193,-0.0571
0.8250,-6.7207,-0.0567
0.8292,-6.7225,-0.0564
0.8333,-6.7246,-0.0561
0.8375,-6.7269,-0.0558
0.8417,-6.7295,-0.0555
0.8458,-6.7321,-0.0552
0.8500,-6.7348,-0.0550
0.8542,-6.7375,-0.0548
0.8583,-6.7401,-0.0547
0.8625,-6.7427,-0.0545
0.8667,-6.7452,-0.0544
0.8708,-6.7476,-0.0543
0.8750,-6.7497,-0.0543
0.8792,-6.7517,-0.0543
0.8833,-6.7535,-0.0543
0.8875,-6.7550,-0.0543
0.8917,-6.7563,-0.0544
0.8958,-6.7573,-0.0545
0.9000,-6.7581,-0.0546
0.9042,-6.7585,-0.0547
0.9083,-6.7586,-0.0549
0.9125,-6.7584,-0.0550
0.9167,-6.7581,-0.0552
0.9208,-6.7576,-0.0554
0.9250,-6.7568,-0.0556
0.9292,-6.7557,-0.0559
0.9333,-6.7543,-0.0562
0.9375,-6.7527,-0.0565
0.9417,-6.7507,-0.0569
0.9458,-6.7485,-0.0573
0.9500,-6.7459,-0.0577
0.9542,-6.7430,-0.0582
0.9583,-6.7397,-0.0587
0.9625,-6.7361,-0.0592
0.9667,-6.7322,-0.0598
0.9708,-6.7279,-0.0604
0.9750,-6.7232,-0.0611
0.9792,-6.7182,-0.0617
0.9833,-6.7128,-0.0624
0.9875,-6.7071,-0.0632
0.9917,-6.7010,-0.0640
0.9958,-6.6945,-0.0648
1.0000,-6.6876,-0.0657
1.0042,-6.6804,-0.0666
1.0083,-6.6728,-0.0675
1.0125,-6.6635,-0.0660
1.0167,-6.6593,-0.0665
1.0208,-6.6542,-0.0667
1.0250,-6.6498,-0.0669
1.0292,-6.6455,-0.0672
1.0333,-6.6412,-0.0675
1.0375,-6.6370,-0.0673
1.0417,-6.6338,-0.0675
1.0458,-6.6306,-0.0676
1.0500,-6.6276,-0.0678
1.0542,-6.6248,-0.0681
1.0583,-6.6210,-0.0664
1.0625,-6.6213,-0.0661
1.0667,-6.6215,-0.0655
1.0708,-6.6225,-0.0651
1.0750,-6.6241,-0.0646
1.0792,-6.6261,-0.0642
1.0833,-6.6285,-0.0638
1.0875,-6.6312,-0.0634
1.0917,-6.6341,-0.0631
1.0958,-6.6371,-0.0627
1.1000,-6.6402,-0.0625
1.1042,-6.6434,-0.0622
1.1083,-6.6465,-0.0620
1.1125,-6.6495,-0.0618
1.1167,-6.6525,-0.0616
1.1208,-6.6553,-0.0615
1.1250,-6.6580,-0.0614
1.1292,-6.6605,-0.0614
1.1333,-6.6627,-0.0613
1.1375,-6.6647,-0.0613
1.1417,-6.6665,-0.0614
1.1458,-6.6680,-0.0615
1.1500,-6.6692,-0.0616
1.1542,-6.6701,-0.0617
1.1583,-6.6706,-0.0618
1.1625,-6.6710,-0.0619
1.1667,-6.6711,-0.0621
1.1708,-6.6710,-0.0623
1.1750,-6.6706,-0.0626
1.1792,-6.6698,-0.0628
1.1833,-6.6688,-0.0631
1.1875,-6.6674,-0.0635
1.1917,-6.6657,-0.0639
1.1958,-6.6637,-0.0643
1.2000,-6.6613,-0.0648
1.2042,-6.6585,-0.0653
1.2083,-6.6553,-0.0658
1.2125,-6.6518,-0.0664
1.2167,-6.6479,-0.0670
1.2208,-6.6437,-0.0676
1.2250,-6.6390,-0.0683
1.2292,-6.6339,-0.0691
1.2333,-6.6284,-0.0699
1.2375,-6.6226,-0.0707
1.2417,-6.6163,-0.0715
1.2458,-6.6096,-0.0724
1.2500,-6.6013,-0.0709
1.2542,-6.5979,-0.0714
1.2583,-6.5936,-0.0714
1.2625,-6.5898,-0.0717
1.2667,-6.5862,-0.0719
1.2708,-6.5826,-0.0721
1.2750,-6.5791,-0.0719
1.2792,-6.5765,-0.0721
1.2833,-6.5740,-0.0722
1.2875,-6.5716,-0.0723
1.2917,-6.5692,-0.0725
1.2958,-6.5660,-0.0708
1.3000,-6.5667,-0.0705
1.3042,-6.5673,-0.0699
1.3083,-6.5687,-0.0695
1.3125,-6.5705,-0.0690
1.3167,-6.5728,-0.0686
1.3208,-6.5754,-0.0682
1.3250,-6.5782,-0.0678
1.3292,-6.5812,-0.0675
1.3333,-6.5843,-0.0672
1.3375,-6.5875,-0.0669
1.3417,-6.5906,-0.0666
1.3458,-6.5937,-0.0664
1.3500,-6.5968,-0.0663
1.3542,-6.5997,-0.0661
1.3583,-6.6024,-0.0660
1.3625,-6.6050,-0.0660
1.3667,-6.6073,-0.0659
1.3708,-6.6094,-0.0659
1.3750,-6.6113,-0.0660
1.3792,-6.6128,-0.0661
1.3833,-6.6141,-0.0662
1.3875,-6.6150,-0.0663
1.3917,-6.6156,-0.0664
1.3958,-6.6161,-0.0665
1.4000,-6.5788,0.0015
1.4042,-6.6128,-0.0628
1.4083,-6.5987,-0.0095
1.4125,-6.6505,-0.0741
1.4167,-6.6557,0.0052
1.4208,-6.7595,-0.0986
1.4250,-6.7547,-0.0051
1.4292,-6.8400,-0.0964
1.4333,-6.7882,0.0030
1.4375,-6.8233,-0.0846
1.4417,-6.7887,-0.0243
1.4458,-6.8297,-0.0815
1.4500,-6.8038,-0.0287
1.4542,-6.8310,-0.0826
1.4583,-6.7218,0.0197
1.4625,-6.6859,-0.0417
1.4667,-6.6301,-0.0257
1.4708,-6.6000,-0.0486
1.4750,-6.6214,-0.0360
1.4792,-6.6725,-0.0600
1.4833,-6.6814,-0.0336
1.4875,-6.7245,-0.0685
1.4917,-6.7180,-0.0331
1.4958,-6.7542,-0.0753
1.5000,-6.7255,-0.0206
1.5042,-6.7508,-0.0699
1.5083,-6.7072,-0.0057
1.5125,-6.7260,-0.0625
1.5167,-6.7145,-0.0186
1.5208,-6.7560,-0.0713
1.5250,-6.7281,-0.0132
1.5292,-6.7615,-0.0722
1.5333,-6.7263,-0.0135
1.5375,-6.7512,-0.0678
1.5417,-6.7211,-0.0093
1.5458,-6.7524,-0.0679
1.5500,-6.7321,-0.0199
1.5542,-6.7706,-0.0701
1.5583,-6.7224,0.0044
1.5625,-6.7461,-0.0614
1.5667,-6.7260,-0.0134
1.5708,-6.7698,-0.0684
1.5750,-6.7415,-0.0100
1.5792,-6.7776,-0.0738
1.5833,-6.7588,-0.0248
1.5875,-6.8037,-0.0729
1.5917,-6.7196,0.0333
1.5958,-6.7294,-0.0485
1.6000,-6.6833,0.0033
1.6042,-6.6968,-0.0554
1.6083,-6.6809,0.0004
1.6125,-6.7387,-0.0709
1.6167,-6.7109,-0.0003
1.6208,-6.7638,-0.0769
1.6250,-6.7210,0.0009
1.6292,-6.7605,-0.0765
1.6333,-6.7327,-0.0158
1.6375,-6.7713,-0.0784
1.6417,-6.7352,-0.0158
1.6458,-6.7653,-0.0785
1.6500,-6.7494,-0.0373
1.6542,-6.7980,-0.0782
1.6583,-6.7793,-0.0386
1.6625,-6.8055,-0.0823
1.6667,-6.7946,-0.0506
1.6708,-6.7461,-0.0135
1.6750,-6.7371,-0.0487
1.6792,-6.7113,-0.0346
1.6833,-6.7080,-0.0582
1.6875,-6.7059,-0.0472
1.6917,-6.7169,-0.0336
1.6958,-6.7579,-0.0543
1.7000,-6.7510,-0.0169
1.7042,-6.7890,-0.0586
1.7083,-6.7767,-0.0161
1.7125,-6.8165,-0.0675
1.7167,-6.8083,0.0005
1.7208,-6.8721,-0.0764
1.7250,-6.8481,-0.0008
1.7292,-6.9002,-0.0805
1.7333,-6.8508,0.0047
1.7375,-6.8764,-0.0689
1.7417,-6.8388,-0.0060
1.7458,-6.8625,-0.0666
1.7500,-6.8192,-0.0002
1.7542,-6.8392,-0.0608
1.7583,-6.8183,-0.0132
1.7625,-6.8890,-0.0538
1.7667,-6.8932,-0.0055
1.7708,-6.9472,-0.0586
1.7750,-6.9352,-0.0004
1.7792,-6.9882,-0.0702
1.7833,-6.9457,0.0054
1.7875,-6.9747,-0.0653
1.7917,-6.9485,0.0193
1.7958,-7.0102,-0.0748
1.8000,-6.9765,0.0136
1.8042,-7.0317,-0.0791
1.8083,-6.9805,0.0122
1.8125,-7.0107,-0.0703
1.8167,-6.9373,0.0048
1.8208,-6.9765,-0.0371
1.8250,-7.0061,-0.0153
1.8292,-7.0620,-0.0497
1.8333,-7.0431,0.0092
1.8375,-7.0867,-0.0557
1.8417,-7.0575,0.0080
1.8458,-7.0991,-0.0644
1.8500,-7.0437,0.0159
1.8542,-7.0625,-0.0561
1.8583,-7.0218,0.0006
1.8625,-7.0407,-0.0560
1.8667,-6.9862,0.0131
1.8708,-7.0377,-0.0368
1.8750,-7.0562,-0.0141
1.8792,-7.1239,-0.0452
1.8833,-7.1631,0.0047
1.8875,-7.2617,-0.0678
1.8917,-7.2512,0.0078
1.8958,-7.3070,-0.0634
1.9000,-7.2388,0.0663
1.9042,-7.2916,0.0400
1.9083,-7.3483,0.0376
1.9125,-7.3962,0.0367
1.9167,-7.4360,0.0358
1.9208,-7.4994,0.0356
1.9250,-7.5561,0.0357
1.9292,-7.6921,0.0376
1.9333,-7.8622,0.0367
1.9375,-8.0572,0.0362
1.9417,-8.2556,0.0348
1.9458,-8.3945,0.0354
1.9500,-8.4924,0.0368
1.9542,-8.5454,0.0371
1.9583,-8.5682,0.0373
1.9625,-8.5730,0.0370
1.9667,-8.5635,0.0365
1.9708,-8.5406,0.0360
1.9750,-8.5057,0.0354
1.9792,-8.4609,0.0346
1.9833,-8.4097,0.0336
1.9875,-8.3558,0.0323
1.9917,-8.3035,0.0307
1.9958,-8.2558,0.0290
2.0000,-8.2147,0.0271
2.0042,-8.1806,0.0251
2.0083,-8.1526,0.0233
2.0125,-8.1284,0.0216
2.0167,-8.1058,0.0201
2.0208,-8.0829,0.0187
2.0250,-8.0585,0.0174
2.0292,-8.0321,0.0162
2.0333,-8.0040,0.0149
2.0375,-7.9748,0.0136
2.0417,-7.9452,0.0123
2.0458,-7.9158,0.0109
2.0500,-7.8868,0.0095
2.0542,-7.8584,0.0081
2.0583,-7.8306,0.0067
2.0625,-7.8035,0.0053
2.0667,-7.7768,0.0039
2.0708,-7.7505,0.0025
2.0750,-7.7246,0.0011
2.0792,-7.6990,-0.0003
2.0833,-7.6736,-0.0017
2.0875,-7.6485,-0.0032
2.0917,-7.6237,-0.0046
2.0958,-7.5991,-0.0060
2.1000,-7.5739,-0.0061
2.1042,-7.5526,-0.0066
2.1083,-7.5352,-0.0075
2.1125,-7.5199,-0.0082
2.1167,-7.5060,-0.0088
2.1208,-7.4931,-0.0094
2.1250,-7.4809,-0.0100
2.1292,-7.4693,-0.0106
2.1333,-7.4581,-0.0112
2.1375,-7.4472,-0.0118
2.1417,-7.4366,-0.0124
2.1458,-7.4262,-0.0129
2.1500,-7.4158,-0.0135
2.1542,-7.4055,-0.0141
2.1583,-7.3953,-0.0148
2.1625,-7.3851,-0.0153
2.1667,-7.3748,-0.0157
2.1708,-7.3651,-0.0160
2.1750,-7.3564,-0.0165
2.1792,-7.3480,-0.0169
2.1833,-7.3401,-0.0173
2.1875,-7.3324,-0.0177
2.1917,-7.3249,-0.0182
2.1958,-7.3175,-0.0186
2.2000,-7.3102,-0.0191
2.2042,-7.3029,-0.0195
2.2083,-7.2956,-0.0200
2.2125,-7.2883,-0.0204
2.2167,-7.2809,-0.0209
2.2208,-7.2735,-0.0214
2.2250,-7.2660,-0.0219
2.2292,-7.2584,-0.0225
2.2333,-7.2500,-0.0216
2.2375,-7.2447,-0.0215
2.2417,-7.2411,-0.0213
2.2458,-7.2390,-0.0211
2.2500,-7.2381,-0.0209
2.2542,-7.2381,-0.0207
2.2583,-7.2390,-0.0205
2.2625,-7.2406,-0.0203
2.2667,-7.2426,-0.0201
2.2708,-7.2452,-0.0199
2.2750,-7.2480,-0.0197
2.2792,-7.2511,-0.0194
2.2833,-7.2543,-0.0192
2.2875,-7.2577,-0.0190
2.2917,-7.2611,-0.0188
2.2958,-7.2646,-0.0187
2.3000,-7.2680,-0.0185
2.3042,-7.2714,-0.0183
2.3083,-7.2747,-0.0182
2.3125,-7.2780,-0.0180
2.3167,-7.2811,-0.0179
2.3208,-7.2841,-0.0177
2.3250,-7.2870,-0.0176
2.3292,-7.2898,-0.0175
2.3333,-7.2924,-0.0174
2.3375,-7.2949,-0.0173
2.3417,-7.2972,-0.0172
2.3458,-7.2993,-0.0171
2.3500,-7.3013,-0.0170
2.3542,-7.3032,-0.0169
2.3583,-7.3049,-0.0169
2.3625,-7.3064,-0.0168
2.3667,-7.3077,-0.0168
2.3708,-7.3089,-0.0168
2.3750,-7.3099,-0.0168
2.3792,-7.3108,-0.0168
2.3833,-7.3114,-0.0168
2.3875,-7.3119,-0.0168
2.3917,-7.3123,-0.0168
2.3958,-7.3124,-0.0168
2.4000,-7.3125,-0.0169
2.4042,-7.3123,-0.0169
2.4083,-7.3120,-0.0170
2.4125,-7.3114,-0.0170
2.4167,-7.3108,-0.0171
2.4208,-7.3099,-0.0172
2.4250,-7.3089,-0.0173
2.4292,-7.3077,-0.0174
2.4333,-7.3064,-0.0176
2.4375,-7.3049,-0.0177
2.4417,-7.3032,-0.0178
2.4458,-7.3013,-0.0180
2.4500,-7.2993,-0.0181
2.4542,-7.2971,-0.0183
2.4583,-7.2947,-0.0185
2.4625,-7.2922,-0.0187
2.4667,-7.2895,-0.0189
2.4708,-7.2866,-0.0191
2.4750,-7.2835,-0.0194
2.4792,-7.2803,-0.0196
2.4833,-7.2769,-0.0199
2.4875,-7.2733,-0.0201
2.4917,-7.2695,-0.0204
2.4958,-7.2656,-0.0207
2.5000,-7.2615,-0.0210
2.5042,-7.2572,-0.0213
2.5083,-7.2527,-0.0217
2.5125,-7.2481,-0.0220
2.5167,-7.2433,-0.0224
2.5208,-7.2383,-0.0227
2.5250,-7.2331,-0.0231
2.5292,-7.2278,-0.0235
2.5333,-7.2222,-0.0240
2.5375,-7.2165,-0.0244
2.5417,-7.2106,-0.0248
2.5458,-7.2046,-0.0253
2.5500,-7.1984,-0.0257
2.5542,-7.1921,-0.0261
2.5583,-7.1859,-0.0265
2.5625,-7.1795,-0.0270
2.5667,-7.1731,-0.0275
2.5708,-7.1666,-0.0280
2.5750,-7.1600,-0.0285
2.5792,-7.1532,-0.0290
2.5833,-7.1463,-0.0295
2.5875,-7.1392,-0.0301
2.5917,-7.1320,-0.0306
2.5958,-7.0977,0.0036
2.6000,-7.1177,-0.0152
2.6042,-7.1442,-0.0168
2.6083,-7.1837,-0.0190
2.6125,-7.2192,-0.0218
2.6167,-7.2374,-0.0219
2.6208,-7.2457,-0.0235
2.6250,-7.2473,-0.0258
2.6292,-7.2436,-0.0284
2.6333,-7.2719,-0.0251
2.6375,-7.2645,0.0181
2.6417,-7.3204,-0.0102
2.6458,-7.3847,-0.0160
2.6500,-7.4657,-0.0145
2.6542,-7.5316,-0.0244
2.6583,-7.5463,-0.0247
2.6625,-7.5907,-0.0102
2.6667,-7.7107,-0.0147
2.6708,-7.8910,-0.0240
2.6750,-8.0720,-0.0356
2.6792,-8.2067,-0.0337
2.6833,-8.2852,-0.0151
2.6875,-8.2996,-0.0138
2.6917,-8.3126,-0.0092
2.6958,-8.2567,0.0067
2.7000,-8.1914,-0.0142
2.7042,-8.0701,0.0313
2.7083,-7.9600,0.0129
2.7125,-7.8825,0.0105
2.7167,-7.8511,0.0038
2.7208,-7.8171,0.0115
2.7250,-7.8540,0.0120
2.7292,-7.9038,-0.0057
2.7333,-7.9447,-0.0009
2.7375,-8.0027,0.0077
2.7417,-8.0687,-0.0068
2.7458,-8.0219,0.0547
2.7500,-8.0468,0.0238
2.7542,-8.0460,0.0111
2.7583,-8.0002,0.0140
2.7625,-7.9414,0.0091
2.7667,-7.9326,0.0105
2.7708,-8.0241,0.0147
2.7750,-8.1392,-0.0034
2.7792,-8.2551,-0.0029
2.7833,-8.3568,-0.0038
2.7875,-8.4289,-0.0033
2.7917,-8.4642,-0.0020
2.7958,-8.4674,-0.0016
2.8000,-8.4536,-0.0034
2.8042,-8.4332,-0.0060
2.8083,-8.4099,-0.0089
2.8125,-8.3834,-0.0061
2.8167,-8.3631,-0.0090
2.8208,-8.3090,-0.0090
2.8250,-8.1353,-0.0021
2.8292,-7.9348,-0.0018
2.8333,-7.7373,-0.0043
2.8375,-7.5555,-0.0080
2.8417,-7.3946,-0.0121
2.8458,-7.2557,-0.0161
2.8500,-7.1370,-0.0197
2.8542,-7.0552,-0.0221
2.8583,-7.0618,-0.0205
2.8625,-7.1063,-0.0232
2.8667,-7.1422,-0.0237
2.8708,-7.1632,-0.0231
2.8750,-7.1758,-0.0229
2.8792,-7.1843,-0.0230
2.8833,-7.1899,-0.0232
2.8875,-7.1934,-0.0235
2.8917,-7.1951,-0.0239
2.8958,-7.1952,-0.0242
2.9000,-7.1941,-0.0246
2.9042,-7.1921,-0.0250
2.9083,-7.1893,-0.0254
2.9125,-7.1857,-0.0258
2.9167,-7.1816,-0.0263
2.9208,-7.1768,-0.0268
2.9250,-7.1716,-0.0273
2.9292,-7.1659,-0.0278
2.9333,-7.1598,-0.0284
2.9375,-7.1533,-0.0290
2.9417,-7.1465,-0.0296
2.9458,-7.1394,-0.0302
2.9500,-7.1320,-0.0308
2.9542,-7.1243,-0.0315
2.9583,-7.1163,-0.0321
2.9625,-7.1081,-0.0328
2.9667,-7.0997,-0.0336
2.9708,-7.0909,-0.0343
2.9750,-7.0820,-0.0351
2.9792,-7.0728,-0.0359
2.9833,-7.0634,-0.0367
2.9875,-7.0538,-0.0375
2.9917,-7.0439,-0.0384
2.9958,-7.0338,-0.0392
3.0000,-7.0235,-0.0402
3.0042,-7.0130,-0.0411
3.0083,-7.0023,-0.0421
3.0125,-6.9913,-0.0430
3.0167,-6.9801,-0.0441
3.0208,-6.9687,-0.0451
3.0250,-6.9571,-0.0462
3.0292,-6.9452,-0.0473
3.0333,-6.9320,-0.0462
3.0375,-6.9237,-0.0468
3.0417,-6.9151,-0.0471
3.0458,-6.9073,-0.0475
3.0500,-6.8999,-0.0479
3.0542,-6.8929,-0.0483
3.0583,-6.8861,-0.0487
3.0625,-6.8793,-0.0486
3.0667,-6.8737,-0.0489
3.0708,-6.8683,-0.0491
3.0750,-6.8633,-0.0494
3.0792,-6.8585,-0.0497
3.0833,-6.8539,-0.0500
3.0875,-6.8494,-0.0503
3.0917,-6.8440,-0.0490
3.0958,-6.8426,-0.0488
3.1000,-6.8414,-0.0483
3.1042,-6.8413,-0.0479
3.1083,-6.8419,-0.0475
3.1125,-6.8430,-0.0472
3.1167,-6.8447,-0.0468
3.1208,-6.8468,-0.0465
3.1250,-6.8491,-0.0462
3.1292,-6.8517,-0.0459
3.1333,-6.8545,-0.0456
3.1375,-6.8575,-0.0454
3.1417,-6.8604,-0.0451
3.1458,-6.8634,-0.0449
3.1500,-6.8664,-0.0447
3.1542,-6.8694,-0.0446
3.1583,-6.8722,-0.0444
3.1625,-6.8749,-0.0443
3.1667,-6.8775,-0.0442
3.1708,-6.8798,-0.0441
3.1750,-6.8820,-0.0441
3.1792,-6.8840,-0.0441
3.1833,-6.8858,-0.0441
3.1875,-6.8873,-0.0441
3.1917,-6.8886,-0.0441
3.1958,-6.8896,-0.0442
3.2000,-6.8903,-0.0443
3.2042,-6.8908,-0.0444
3.2083,-6.8910,-0.0446
3.2125,-6.8909,-0.0447
3.2167,-6.8905,-0.0449
3.2208,-6.8897,-0.0452
3.2250,-6.8887,-0.0454
3.2292,-6.8874,-0.0457
3.2333,-6.8857,-0.0460
3.2375,-6.8837,-0.0463
3.2417,-6.8815,-0.0465
3.2458,-6.8791,-0.0468
3.2500,-6.8765,-0.0472
3.2542,-6.8737,-0.0476
3.2583,-6.8706,-0.0479
3.2625,-6.8672,-0.0484
3.2667,-6.8636,-0.0488
3.2708,-6.8597,-0.0493
3.2750,-6.8555,-0.0498
3.2792,-6.8510,-0.0504
3.2833,-6.8463,-0.0509
3.2875,-6.8412,-0.0515
3.2917,-6.8358,-0.0521
3.2958,-6.8301,-0.0528
3.3000,-6.8241,-0.0535
3.3042,-6.8178,-0.0542
3.3083,-6.8112,-0.0550
3.3125,-6.8043,-0.0558
3.3167,-6.7970,-0.0566
3.3208,-6.7894,-0.0575
3.3250,-6.7814,-0.0584
3.3292,-6.7732,-0.0593
3.3333,-6.7646,-0.0603
3.3375,-6.7556,-0.0613
3.3417,-6.7452,-0.0599
3.3458,-6.7394,-0.0604
3.3500,-6.7331,-0.0606
3.3542,-6.7274,-0.0609
3.3583,-6.7219,-0.0613
3.3625,-6.7165,-0.0615
3.3667,-6.7113,-0.0614
3.3708,-6.7072,-0.0616
3.3750,-6.7032,-0.0618
3.3792,-6.6995,-0.0620
3.3833,-6.6959,-0.0623
3.3875,-6.6924,-0.0625
3.3917,-6.6880,-0.0609
3.3958,-6.6879,-0.0607
3.4000,-6.6878,-0.0602
3.4042,-6.6885,-0.0598
3.4083,-6.6898,-0.0593
3.4125,-6.6915,-0.0590
3.4167,-6.6936,-0.0586
3.4208,-6.6960,-0.0582
3.4250,-6.6987,-0.0579
3.4292,-6.7015,-0.0576
3.4333,-6.7044,-0.0574
3.4375,-6.7073,-0.0571
3.4417,-6.6611,-0.0022
3.4458,-6.6851,-0.0360
3.4500,-6.6856,-0.0323
3.4542,-6.7040,-0.0401
3.4583,-6.7398,-0.0339
3.4625,-6.7939,-0.0438
3.4667,-6.8523,-0.0633
3.4708,-6.9286,-0.0453
3.4750,-7.0307,-0.0384
3.4792,-7.1458,-0.0555
3.4833,-7.2550,-0.0297
3.4875,-7.4374,-0.0590
3.4917,-7.5927,-0.0681
3.4958,-7.7356,-0.0498
3.5000,-7.8326,-0.0477
3.5042,-7.9237,-0.0461
3.5083,-7.9498,-0.0437
3.5125,-7.9534,-0.0475
3.5167,-7.8171,0.0648
3.5208,-7.7426,0.0107
3.5250,-7.6269,0.0109
3.5292,-7.5718,0.0175
3.5333,-7.5513,-0.0106
3.5375,-7.5243,-0.0016
3.5417,-7.5088,-0.0163
3.5458,-7.4994,-0.0155
3.5500,-7.5043,-0.0246
3.5542,-7.5130,-0.0256
3.5583,-7.5182,-0.0273
3.5625,-7.4511,-0.0248
3.5667,-7.3805,-0.0254
3.5708,-7.3164,-0.0282
3.5750,-7.2729,-0.0295
3.5792,-7.2436,-0.0309
3.5833,-7.2180,-0.0322
3.5875,-7.1939,-0.0335
3.5917,-7.1710,-0.0347
3.5958,-7.1493,-0.0359
3.6000,-7.1285,-0.0372
3.6042,-7.1074,-0.0362
3.6083,-7.0924,-0.0370
3.6125,-7.0780,-0.0374
3.6167,-7.0650,-0.0379
3.6208,-7.0530,-0.0384
3.6250,-7.0418,-0.0389
3.6292,-7.0312,-0.0393
3.6333,-7.0212,-0.0394
3.6375,-7.0126,-0.0397
3.6417,-7.0047,-0.0400
3.6458,-6.9973,-0.0403
3.6500,-6.9904,-0.0406
3.6542,-6.9839,-0.0409
3.6583,-6.9778,-0.0413
3.6625,-6.9718,-0.0417
3.6667,-6.9660,-0.0420
3.6708,-6.9603,-0.0425
3.6750,-6.9538,-0.0412
3.6792,-6.9510,-0.0411
3.6833,-6.9488,-0.0407
3.6875,-6.9477,-0.0404
3.6917,-6.9474,-0.0400
3.6958,-6.9478,-0.0397
3.7000,-6.9487,-0.0394
3.7042,-6.9501,-0.0392
3.7083,-6.9519,-0.0389
3.7125,-6.9540,-0.0387
3.7167,-6.9563,-0.0384
3.7208,-6.9587,-0.0382
3.7250,-6.9613,-0.0380
3.7292,-6.9639,-0.0378
3.7333,-6.9666,-0.0376
3.7375,-6.9692,-0.0375
3.7417,-6.9717,-0.0374
3.7458,-6.9741,-0.0373
3.7500,-6.9765,-0.0372
3.7542,-6.9787,-0.0371
3.7583,-6.9807,-0.0370
3.7625,-6.9825,-0.0370
3.7667,-6.9842,-0.0370
3.7708,-6.9856,-0.0370
3.7750,-6.9868,-0.0370
3.7792,-6.9878,-0.0371
3.7833,-6.9886,-0.0371
3.7875,-6.9891,-0.0372
3.7917,-6.9893,-0.0373
3.7958,-6.9893,-0.0374
3.8000,-6.9890,-0.0376
3.8042,-6.9884,-0.0378
3.8083,-6.9876,-0.0380
3.8125,-6.9865,-0.0382
3.8167,-6.9851,-0.0384
3.8208,-6.9834,-0.0387
3.8250,-6.9815,-0.0390
3.8292,-6.9792,-0.0393
3.8333,-6.9767,-0.0396
3.8375,-6.9739,-0.0400
3.8417,-6.9708,-0.0403
3.8458,-6.9673,-0.0406
3.8500,-6.9638,-0.0410
3.8542,-6.9601,-0.0414
3.8583,-6.9562,-0.0418
3.8625,-6.9521,-0.0422
3.8667,-6.9478,-0.0426
3.8708,-6.9433,-0.0431
3.8750,-6.9386,-0.0436
3.8792,-6.9335,-0.0441
3.8833,-6.9283,-0.0447
3.8875,-6.9228,-0.0453
3.8917,-6.9170,-0.0459
3.8958,-6.9110,-0.0465
3.9000,-6.9046,-0.0472
3.9042,-6.8981,-0.0479
3.9083,-6.8912,-0.0486
3.9125,-6.8840,-0.0493
3.9167,-6.8766,-0.0501
3.9208,-6.8689,-0.0509
3.9250,-6.8608,-0.0518
3.9292,-6.8525,-0.0527
3.9333,-6.8439,-0.0536
3.9375,-6.8350,-0.0545
3.9417,-6.8258,-0.0555
3.9458,-6.8162,-0.0565
3.9500,-6.8053,-0.0552
3.9542,-6.7989,-0.0558
3.9583,-6.7921,-0.0559
3.9625,-6.7860,-0.0563
3.9667,-6.7802,-0.0566
3.9708,-6.7746,-0.0569
3.9750,-6.7691,-0.0568
3.9792,-6.7646,-0.0570
3.9833,-6.7604,-0.0571
3.9875,-6.7565,-0.0573
3.9917,-6.7528,-0.0575
3.9958,-6.7492,-0.0578
4.0000,-6.7457,-0.0581
4.0042,-6.7422,-0.0584
4.0083,-6.7379,-0.0568
4.0125,-6.7377,-0.0566
4.0167,-6.7375,-0.0561
4.0208,-6.7381,-0.0557
4.0250,-6.7393,-0.0554
4.0292,-6.7410,-0.0550
4.0333,-6.7430,-0.0546
4.0375,-6.7453,-0.0543
4.0417,-6.7478,-0.0540
4.0458,-6.7505,-0.0537
4.0500,-6.7533,-0.0535
4.0542,-6.7561,-0.0533
4.0583,-6.7590,-0.0531
4.0625,-6.7617,-0.0529
4.0667,-6.7644,-0.0528
4.0708,-6.7670,-0.0527
4.0750,-6.7695,-0.0526
4.0792,-6.7717,-0.0525
4.0833,-6.7738,-0.0525
4.0875,-6.7757,-0.0525
4.0917,-6.7773,-0.0525
4.0958,-6.7787,-0.0526
4.1000,-6.7798,-0.0526
4.1042,-6.7806,-0.0527
4.1083,-6.7811,-0.0529
4.1125,-6.7814,-0.0531
4.1167,-6.7813,-0.0533
4.1208,-6.7809,-0.0535
4.1250,-6.7802,-0.0538
4.1292,-6.7791,-0.0541
4.1333,-6.7776,-0.0543
4.1375,-6.7652,-0.0225
4.1417,-6.7992,-0.0210
4.1458,-6.8439,-0.0103
4.1500,-6.9165,-0.0076
4.1542,-7.0025,-0.0038
4.1583,-7.1004,0.0004
4.1625,-7.1607,0.0544
4.1667,-7.2607,0.0452
4.1708,-7.3728,0.0419
4.1750,-7.4988,0.0411
4.1792,-7.6552,0.1313
4.1833,-7.8322,0.1791
4.1875,-8.0535,0.1622
4.1917,-8.2403,0.1966
4.1958,-8.4648,0.1751
4.2000,-8.7056,0.1591
4.2042,-8.9528,0.1433
4.2083,-9.1544,0.1805
4.2125,-9.3377,0.2111
4.2167,-9.5766,0.1985
4.2208,-9.8196,0.1711
4.2250,-10.0567,0.1482
4.2292,-10.2829,0.1267
4.2333,-10.4442,0.1562
4.2375,-10.6102,0.1260
4.2417,-10.7615,0.1018
4.2458,-10.8959,0.0802
4.2500,-10.9622,0.1103
4.2542,-11.0365,0.0812
4.2583,-11.0474,0.1080
4.2625,-11.0741,0.0746
4.2667,-11.0504,0.0775
4.2708,-10.9962,0.0738
4.2750,-10.8598,0.0805
4.2792,-10.6977,0.0786
4.2833,-10.4983,0.0778
4.2875,-10.2092,0.0784
4.2917,-9.8976,0.0752
4.2958,-9.5750,0.0717
4.3000,-9.2443,0.0671
4.3042,-8.9141,0.0629
4.3083,-8.6023,0.0584
4.3125,-8.3266,0.0534
4.3167,-8.0849,0.0527
4.3208,-7.8997,0.0459
4.3250,-7.7917,0.0405
4.3292,-7.7612,0.0339
4.3333,-7.8048,0.0280
4.3375,-7.9021,0.0255
4.3417,-7.9998,0.0245
4.3458,-8.0850,0.0237
4.3500,-8.1509,0.0234
4.3542,-8.1971,0.0233
4.3583,-8.2248,0.0231
4.3625,-8.2353,0.0228
4.3667,-8.2306,0.0225
4.3708,-8.2136,0.0219
4.3750,-8.1878,0.0212
4.3792,-8.1565,0.0201
4.3833,-8.1226,0.0189
4.3875,-8.0881,0.0176
4.3917,-8.0541,0.0161
4.3958,-8.0211,0.0147
4.4000,-7.9893,0.0132
4.4042,-7.9585,0.0117
4.4083,-7.9285,0.0103
4.4125,-7.8992,0.0089
4.4167,-7.8705,0.0074
4.4208,-7.8421,0.0060
4.4250,-7.8142,0.0046
4.4292,-7.7866,0.0032
4.4333,-7.7593,0.0018
4.4375,-7.7323,0.0004
4.4417,-7.7057,-0.0011
4.4458,-7.6793,-0.0025
4.4500,-7.6532,-0.0039
4.4542,-7.6266,-0.0042
4.4583,-7.6040,-0.0046
4.4625,-7.5865,-0.0055
4.4667,-7.5707,-0.0062
4.4708,-7.5561,-0.0068
4.4750,-7.5424,-0.0074
4.4792,-7.5295,-0.0080
4.4833,-7.5171,-0.0086
4.4875,-7.5052,-0.0092
4.4917,-7.4937,-0.0098
4.4958,-7.4824,-0.0104
4.5000,-7.4714,-0.0110
4.5042,-7.4605,-0.0116
4.5083,-7.4497,-0.0122
4.5125,-7.4390,-0.0128
4.5167,-7.4284,-0.0134
4.5208,-7.4178,-0.0140
4.5250,-7.4071,-0.0143
4.5292,-7.3972,-0.0147
4.5333,-7.3880,-0.0152
4.5375,-7.3792,-0.0156
4.5417,-7.3708,-0.0160
4.5458,-7.3626,-0.0164
4.5500,-7.3547,-0.0168
4.5542,-7.3470,-0.0173
4.5583,-7.3393,-0.0177
4.5625,-7.3318,-0.0182
4.5667,-7.3242,-0.0186
4.5708,-7.3166,-0.0191
4.5750,-7.3091,-0.0196
4.5792,-7.3014,-0.0201
4.5833,-7.2937,-0.0206
4.5875,-7.2860,-0.0211
4.5917,-7.2781,-0.0216
4.5958,-7.2694,-0.0208
4.6000,-7.2635,-0.0207
4.6042,-7.2592,-0.0205
4.6083,-7.2564,-0.0203
4.6125,-7.2548,-0.0201
4.6167,-7.2543,-0.0199
4.6208,-7.2546,-0.0197
4.6250,-7.2556,-0.0195
4.6292,-7.2572,-0.0193
4.6333,-7.2593,-0.0190
4.6375,-7.2617,-0.0188
4.6417,-7.2645,-0.0186
4.6458,-7.2674,-0.0184
4.6500,-7.2705,-0.0182
4.6542,-7.2737,-0.0180
4.6583,-7.2770,-0.0179
4.6625,-7.2803,-0.0177
4.6667,-7.2836,-0.0175
4.6708,-7.2868,-0.0174
4.6750,-7.2900,-0.0172
4.6792,-7.2931,-0.0171
4.6833,-7.2962,-0.0169
4.6875,-7.2991,-0.0168
4.6917,-7.3019,-0.0167
4.6958,-7.3046,-0.0165
4.7000,-7.3071,-0.0164
4.7042,-7.3096,-0.0163
4.7083,-7.3119,-0.0163
4.7125,-7.3140,-0.0162
4.7167,-7.3160,-0.0161
4.7208,-7.3178,-0.0160
4.7250,-7.3195,-0.0160
4.7292,-7.3210,-0.0159
4.7333,-7.3224,-0.0159
4.7375,-7.3237,-0.0159
4.7417,-7.3247,-0.0159
4.7458,-7.3256,-0.0158
4.7500,-7.3264,-0.0158
4.7542,-7.3270,-0.0159
4.7583,-7.3274,-0.0159
4.7625,-7.3277,-0.0159
4.7667,-7.3278,-0.0159
4.7708,-7.3277,-0.0160
4.7750,-7.3275,-0.0160
4.7792,-7.3271,-0.0161
4.7833,-7.3266,-0.0162
4.7875,-7.3259,-0.0163
4.7917,-7.3251,-0.0163
4.7958,-7.3240,-0.0164
4.8000,-7.3228,-0.0166
4.8042,-7.3215,-0.0167
4.8083,-7.3200,-0.0168
4.8125,-7.3183,-0.0170
4.8167,-7.3165,-0.0171
4.8208,-7.3145,-0.0173
4.8250,-7.3123,-0.0174
4.8292,-7.3100,-0.0176
4.8333,-7.3075,-0.0178
4.8375,-7.3048,-0.0180
4.8417,-7.3020,-0.0182
4.8458,-7.2990,-0.0185
4.8500,-7.2958,-0.0187
4.8542,-7.2925,-0.0189
4.8583,-7.2161,0.0572
4.8625,-7.2975,0.0315
4.8667,-7.3855,0.0256
4.8708,-7.3946,0.1266
4.8750,-7.4155,0.1453
4.8792,-7.5732,0.3447
4.8833,-7.8091,0.4008
4.8875,-8.0997,0.4249
4.8917,-8.4783,0.3886
4.8958,-8.7364,0.4963
4.9000,-9.0890,0.4898
4.9042,-9.3694,0.5492
4.9083,-9.6156,0.5884
4.9125,-9.9054,0.5672
4.9167,-10.2386,0.5051
4.9208,-10.4643,0.5629
4.9250,-10.7296,0.5466
4.9292,-10.9198,0.5907
4.9333,-11.1708,0.5721
4.9375,-11.3245,0.6126
4.9417,-11.6005,0.5340
4.9458,-11.7519,0.5859
4.9500,-11.9664,0.5670
4.9542,-12.1469,0.5568
4.9583,-12.2615,0.5976
4.9625,-12.4806,0.5234
4.9667,-12.5672,0.5778
4.9708,-12.6466,0.5875
4.9750,-12.7395,0.5768
4.9792,-12.8290,0.5692
4.9833,-12.9092,0.5621
4.9875,-12.9773,0.5556
4.9917,-13.0329,0.5644
4.9958,-13.1033,0.5545
5.0000,-13.1668,0.5473
5.0042,-13.2195,0.5408
5.0083,-13.2603,0.5347
5.0125,-13.2932,0.5417
5.0167,-13.3416,0.5323
5.0208,-13.3834,0.5254
5.0250,-13.4150,0.5192
5.0292,-13.4362,0.5133
5.0333,-13.4472,0.5077
5.0375,-13.4546,0.5140
5.0417,-13.5349,0.5088
5.0458,-13.6282,0.5168
5.0500,-13.7229,0.5119
5.0542,-13.8044,0.5061
5.0583,-13.8691,0.5014
5.0625,-13.9234,0.5070
5.0667,-13.9685,0.5006
5.0708,-14.0000,0.4947
5.0750,-14.0171,0.4893
5.0792,-14.0201,0.4847
5.0833,-14.0099,0.4802
5.0875,-13.9875,0.4760
5.0917,-13.9527,0.4721
5.0958,-13.9052,0.4685
5.1000,-13.7744,0.4795
5.1042,-13.6412,0.4757
5.1083,-13.5255,0.4699
5.1125,-13.4334,0.4638
5.1167,-13.3618,0.4577
5.1208,-13.3028,0.4522
5.1250,-13.2497,0.4475
5.1292,-13.1986,0.4436
5.1333,-13.1479,0.4397
5.1375,-13.1015,0.4413
5.1417,-13.0797,0.4373
5.1458,-13.0592,0.4317
5.1500,-13.0348,0.4274
5.1542,-13.0058,0.4232
5.1583,-12.9720,0.4192
5.1625,-12.9331,0.4157
5.1667,-12.8906,0.4122
5.1708,-12.8453,0.4088
5.1750,-12.7988,0.4055
5.1792,-12.7591,0.4096
5.1833,-12.7366,0.4035
5.1875,-12.7165,0.3987
5.1917,-12.6936,0.3944
5.1958,-12.6666,0.3904
5.2000,-12.6362,0.3866
5.2042,-12.6029,0.3832
5.2083,-12.5670,0.3800
5.2125,-12.5290,0.3769
5.2167,-12.4896,0.3740
5.2208,-12.4532,0.3745
5.2250,-12.4339,0.3719
5.2292,-12.4157,0.3669
5.2333,-12.3919,0.3632
5.2375,-12.3641,0.3595
5.2417,-12.3333,0.3560
5.2458,-12.3004,0.3526
5.2500,-12.2657,0.3493
5.2542,-12.2290,0.3462
5.2583,-12.1916,0.3432
5.2625,-12.1543,0.3405
5.2667,-12.1170,0.3379
5.2708,-12.0857,0.3407
5.2750,-12.0674,0.3355
5.2792,-12.0493,0.3314
5.2833,-12.0287,0.3276
5.2875,-12.0056,0.3241
5.2917,-11.9801,0.3208
5.2958,-11.9527,0.3177
5.3000,-11.9238,0.3147
5.3042,-11.8938,0.3119
5.3083,-11.8631,0.3092
5.3125,-11.8320,0.3067
5.3167,-11.8006,0.3043
5.3208,-11.7722,0.3038
5.3250,-11.7552,0.3013
5.3292,-11.7382,0.2973
5.3333,-11.7176,0.2937
5.3375,-11.6938,0.2904
5.3417,-11.6685,0.2872
5.3458,-11.6422,0.2842
5.3500,-11.6151,0.2811
5.3542,-11.5874,0.2783
5.3583,-11.5592,0.2756
5.3625,-11.5308,0.2731
5.3667,-11.5023,0.2707
5.3708,-11.4740,0.2684
5.3750,-11.4459,0.2663
5.3792,-11.4181,0.2643
5.3833,-11.3935,0.2636
5.3875,-11.3781,0.2614
5.3917,-11.3627,0.2578
5.3958,-11.3446,0.2545
5.4000,-11.3245,0.2513
5.4042,-11.3027,0.2483
5.4083,-11.2799,0.2454
5.4125,-11.2562,0.2426
5.4167,-11.2318,0.2399
5.4208,-11.2069,0.2373
5.4250,-11.1815,0.2349
5.4292,-11.1562,0.2327
5.4333,-11.1309,0.2305
5.4375,-11.1058,0.2285
5.4417,-11.0810,0.2265
5.4458,-11.0566,0.2247
5.4500,-11.0326,0.2230
5.4542,-11.0114,0.2218
5.4583,-10.9975,0.2192
5.4625,-10.9821,0.2163
5.4667,-10.9645,0.2133
5.4708,-10.9452,0.2102
5.4750,-10.9244,0.2073
5.4792,-10.9025,0.2046
5.4833,-10.8794,0.2019
5.4875,-10.8562,0.1994
5.4917,-10.8325,0.1969
5.4958,-10.8087,0.1945
5.5000,-10.7847,0.1923
5.5042,-10.7607,0.1901
5.5083,-10.7368,0.1880
5.5125,-10.7131,0.1860
5.5167,-10.6897,0.1842
5.5208,-10.6666,0.1824
5.5250,-10.6439,0.1807
5.5292,-10.6217,0.1791
5.5333,-10.6000,0.1776
5.5375,-10.5789,0.1762
5.5417,-10.5584,0.1749
5.5458,-10.5403,0.1732
5.5500,-10.5259,0.1713
5.5542,-10.5109,0.1684
5.5583,-10.4940,0.1655
5.5625,-10.4753,0.1627
5.5667,-10.4552,0.1600
5.5708,-10.4340,0.1574
5.5750,-10.4118,0.1549
5.5792,-10.3889,0.1525
5.5833,-10.3654,0.1501
5.5875,-10.3415,0.1478
5.5917,-10.3174,0.1456
5.5958,-10.2930,0.1434
5.6000,-10.2683,0.1414
5.6042,-10.2439,0.1393
5.6083,-10.2197,0.1374
5.6125,-10.1957,0.1355
5.6167,-10.1719,0.1337
5.6208,-10.1484,0.1320
5.6250,-10.1252,0.1304
5.6292,-10.1025,0.1288
5.6333,-10.0803,0.1273
5.6375,-10.0585,0.1258
5.6417,-10.0372,0.1245
5.6458,-10.0165,0.1232
5.6500,-9.9963,0.1219
5.6542,-9.9767,0.1207
5.6583,-9.9577,0.1196
5.6625,-9.9393,0.1186
5.6667,-9.9216,0.1176
5.6708,-9.9045,0.1167
5.6750,-9.8881,0.1158
5.6792,-9.8740,0.1139
5.6833,-9.8589,0.1123
5.6875,-9.8434,0.1110
5.6917,-9.8291,0.1090
5.6958,-9.8133,0.1064
5.7000,-9.7950,0.1040
5.7042,-9.7746,0.1017
5.7083,-9.7524,0.0993
5.7125,-9.7285,0.0971
5.7167,-9.7031,0.0948
5.7208,-9.6764,0.0926
5.7250,-9.6485,0.0905
5.7292,-9.6195,0.0884
5.7333,-9.5895,0.0863
5.7375,-9.5587,0.0843
5.7417,-9.5270,0.0823
5.7458,-9.4946,0.0804
5.7500,-9.4616,0.0785
5.7542,-9.4280,0.0766
5.7583,-9.3939,0.0748
5.7625,-9.3594,0.0730
5.7667,-9.3245,0.0712
5.7708,-9.2893,0.0694
5.7750,-9.2539,0.0677
5.7792,-9.2183,0.0661
5.7833,-9.1826,0.0644
5.7875,-9.1469,0.0628
5.7917,-9.1112,0.0612
5.7958,-9.0757,0.0596
5.8000,-9.0402,0.0581
5.8042,-9.0050,0.0565
5.8083,-8.9700,0.0550
5.8125,-8.9353,0.0535
5.8167,-8.9009,0.0521
5.8208,-8.8668,0.0507
5.8250,-8.8331,0.0492
5.8292,-8.7998,0.0478
5.8333,-8.7669,0.0465
5.8375,-8.7344,0.0451
5.8417,-8.7024,0.0438
5.8458,-8.6707,0.0425
5.8500,-8.6395,0.0412
5.8542,-8.6087,0.0399
5.8583,-8.5784,0.0386
5.8625,-8.5484,0.0374
5.8667,-8.5189,0.0362
5.8708,-8.4899,0.0350
5.8750,-8.4612,0.0338
5.8792,-8.4329,0.0326
5.8833,-8.4050,0.0314
5.8875,-8.3775,0.0303
5.8917,-8.3503,0.0292
5.8958,-8.3236,0.0280
5.9000,-8.2972,0.0269
5.9042,-8.2712,0.0258
5.9083,-8.2455,0.0247
5.9125,-8.2203,0.0237
5.9167,-8.1954,0.0226
5.9208,-8.1708,0.0215
5.9250,-8.1466,0.0205
5.9292,-8.1226,0.0194
5.9333,-8.0990,0.0184
5.9375,-8.0756,0.0173
5.9417,-8.0525,0.0163
5.9458,-8.0297,0.0153
5.9500,-8.0071,0.0143
5.9542,-7.9848,0.0133
5.9583,-7.9627,0.0123
5.9625,-7.9409,0.0113
5.9667,-7.9193,0.0103
5.9708,-7.8979,0.0093
5.9750,-7.8767,0.0083
5.9792,-7.8558,0.0073
5.9833,-7.8350,0.0063
5.9875,-7.8145,0.0053
5.9917,-7.7941,0.0043
5.9958,-7.7739,0.0033
6.0000,-7.7539,0.0023
6.0042,-7.7340,0.0013
6.0083,-7.7143,0.0003
6.0125,-7.6947,-0.0007
6.0167,-7.6753,-0.0017
6.0208,-7.6560,-0.0027
6.0250,-7.6368,-0.0037
6.0292,-7.6178,-0.0047
6.0333,-7.5988,-0.0058
6.0375,-7.5800,-0.0068
6.0417,-7.5613,-0.0078
6.0458,-7.5427,-0.0089
6.0500,-7.5241,-0.0099
6.0542,-7.5057,-0.0110
6.0583,-7.4873,-0.0121
6.0625,-7.4690,-0.0131
6.0667,-7.4508,-0.0142
6.0708,-7.4326,-0.0153
6.0750,-7.4145,-0.0165
6.0792,-7.3964,-0.0176
6.0833,-7.3784,-0.0187
6.0875,-7.3604,-0.0199
6.0917,-7.3424,-0.0211
6.0958,-7.3244,-0.0223
6.1000,-7.3065,-0.0235
6.1042,-7.2886,-0.0247
6.1083,-7.2707,-0.0259
6.1125,-7.2528,-0.0272
6.1167,-7.2348,-0.0285
6.1208,-7.2169,-0.0297
6.1250,-7.1990,-0.0311
6.1292,-7.1810,-0.0324
6.1333,-7.1630,-0.0338
6.1375,-7.1449,-0.0351
6.1417,-7.1260,-0.0350
6.1458,-7.1098,-0.0351
6.1500,-7.0959,-0.0352
6.1542,-7.0838,-0.0356
6.1583,-7.0722,-0.0347
6.1625,-7.0645,-0.0341
6.1667,-7.0598,-0.0337
6.1708,-7.0567,-0.0332
6.1750,-7.0551,-0.0328
6.1792,-7.0547,-0.0323
6.1833,-7.0555,-0.0319
6.1875,-7.0573,-0.0314
6.1917,-7.0599,-0.0310
6.1958,-7.0632,-0.0305
6.2000,-7.0671,-0.0301
6.2042,-7.0715,-0.0296
6.2083,-7.0763,-0.0292
6.2125,-7.0814,-0.0288
6.2167,-7.0868,-0.0284
6.2208,-7.0923,-0.0280
6.2250,-7.0980,-0.0276
6.2292,-7.1038,-0.0273
6.2333,-7.1096,-0.0269
6.2375,-7.1155,-0.0266
6.2417,-7.1213,-0.0262
6.2458,-7.1271,-0.0259
6.2500,-7.1328,-0.0256
6.2542,-7.1384,-0.0253
6.2583,-7.1439,-0.0250
6.2625,-7.1493,-0.0247
6.2667,-7.1546,-0.0245
6.2708,-7.1597,-0.0242
6.2750,-7.1647,-0.0240
6.2792,-7.1694,-0.0237
6.2833,-7.1741,-0.0235
6.2875,-7.1785,-0.0233
6.2917,-7.1828,-0.0231
6.2958,-7.1868,-0.0229
6.3000,-7.1907,-0.0228
6.3042,-7.1944,-0.0226
6.3083,-7.1979,-0.0225
6.3125,-7.2012,-0.0224
6.3167,-7.2042,-0.0222
6.3208,-7.2071,-0.0221
6.3250,-7.2098,-0.0220
6.3292,-7.2123,-0.0220
6.3333,-7.2146,-0.0219
6.3375,-7.2166,-0.0218
6.3417,-7.2185,-0.0218
6.3458,-7.2202,-0.0218
6.3500,-7.2216,-0.0217
6.3542,-7.2229,-0.0217
6.3583,-7.2239,-0.0217
6.3625,-7.2247,-0.0218
6.3667,-7.2254,-0.0218
6.3708,-7.2258,-0.0218
6.3750,-7.2260,-0.0219
6.3792,-7.2260,-0.0220
6.3833,-7.2258,-0.0220
6.3875,-7.2254,-0.0221
6.3917,-7.2248,-0.0222
6.3958,-7.2239,-0.0224
6.4000,-7.2229,-0.0225
6.4042,-7.2217,-0.0226
6.4083,-7.2202,-0.0228
6.4125,-7.2186,-0.0230
6.4167,-7.2167,-0.0232
6.4208,-7.2147,-0.0234
6.4250,-7.2124,-0.0236
6.4292,-7.2099,-0.0238
6.4333,-7.2072,-0.0241
6.4375,-7.2043,-0.0243
6.4417,-7.2012,-0.0246
6.4458,-7.1979,-0.0249
6.4500,-7.1944,-0.0252
6.4542,-7.1906,-0.0255
6.4583,-7.1867,-0.0258
6.4625,-7.1825,-0.0262
6.4667,-7.1781,-0.0265
6.4708,-7.1736,-0.0269
6.4750,-7.1688,-0.0273
6.4792,-7.1638,-0.0277
6.4833,-7.1585,-0.0282
6.4875,-7.1531,-0.0286
6.4917,-7.1475,-0.0291
6.4958,-7.1416,-0.0296
6.5000,-7.1355,-0.0301
6.5042,-7.1292,-0.0306
6.5083,-7.1227,-0.0312
6.5125,-7.1160,-0.0317
6.5167,-7.1091,-0.0323
6.5208,-7.1019,-0.0329
6.5250,-7.0946,-0.0335
6.5292,-7.0871,-0.0341
6.5333,-7.0793,-0.0348
6.5375,-7.0714,-0.0355
6.5417,-7.0632,-0.0362
6.5458,-7.0549,-0.0369
6.5500,-7.0463,-0.0376
6.5542,-7.0378,-0.0384
6.5583,-7.0288,-0.0392
6.5625,-7.0195,-0.0400
6.5667,-7.0101,-0.0408
6.5708,-7.0004,-0.0417
6.5750,-6.9905,-0.0425
6.5792,-6.9804,-0.0435
6.5833,-6.9700,-0.0444
6.5875,-6.9594,-0.0454
6.5917,-6.9486,-0.0464
6.5958,-6.9376,-0.0474
6.6000,-6.9263,-0.0485
6.6042,-6.9148,-0.0495
6.6083,-6.9030,-0.0507
6.6125,-6.8909,-0.0518
6.6167,-6.8787,-0.0530
6.6208,-6.8661,-0.0542
6.6250,-6.8533,-0.0555
6.6292,-6.8391,-0.0543
6.6333,-6.8298,-0.0549
6.6375,-6.8204,-0.0548
6.6417,-6.8119,-0.0533
6.6458,-6.8076,-0.0529
6.6500,-6.8041,-0.0523
6.6542,-6.8022,-0.0518
6.6583,-6.8014,-0.0512
6.6625,-6.8016,-0.0507
6.6667,-6.8027,-0.0502
6.6708,-6.8045,-0.0497
6.6750,-6.8069,-0.0492
6.6792,-6.8098,-0.0488
6.6833,-6.8131,-0.0483
6.6875,-6.8168,-0.0479
6.6917,-6.8207,-0.0475
6.6958,-6.8249,-0.0471
6.7000,-6.8291,-0.0467
6.7042,-6.8335,-0.0464
6.7083,-6.8378,-0.0461
6.7125,-6.8422,-0.0458
6.7167,-6.8465,-0.0455
6.7208,-6.8508,-0.0453
6.7250,-6.8549,-0.0450
6.7292,-6.8588,-0.0448
6.7333,-6.8627,-0.0446
6.7375,-6.8663,-0.0445
6.7417,-6.8697,-0.0443
6.7458,-6.8730,-0.0442
6.7500,-6.8759,-0.0441
6.7542,-6.8787,-0.0441
6.7583,-6.8812,-0.0440
6.7625,-6.8834,-0.0440
6.7667,-6.8853,-0.0440
6.7708,-6.8870,-0.0441
6.7750,-6.8883,-0.0441
6.7792,-6.8894,-0.0442
6.7833,-6.8902,-0.0443
6.7875,-6.8906,-0.0444
6.7917,-6.8908,-0.0446
6.7958,-6.8906,-0.0448
6.8000,-6.8902,-0.0450
6.8042,-6.8894,-0.0452
6.8083,-6.8883,-0.0455
6.8125,-6.8868,-0.0458
6.8167,-6.8851,-0.0461
6.8208,-6.8830,-0.0464
6.8250,-6.8806,-0.0468
6.8292,-6.8779,-0.0472
6.8333,-6.8748,-0.0476
6.8375,-6.8714,-0.0481
6.8417,-6.8677,-0.0486
6.8458,-6.8637,-0.0491
6.8500,-6.8593,-0.0496
6.8542,-6.8546,-0.0502
6.8583,-6.8496,-0.0508
6.8625,-6.8443,-0.0514
6.8667,-6.8387,-0.0521
6.8708,-6.8328,-0.0527
6.8750,-6.8266,-0.0535
6.8792,-6.8199,-0.0542
6.8833,-6.8131,-0.0550
6.8875,-6.8058,-0.0558
6.8917,-6.7983,-0.0566
6.8958,-6.7904,-0.0575
6.9000,-6.7821,-0.0584
6.9042,-6.7736,-0.0594
6.9083,-6.7647,-0.0604
6.9125,-6.7555,-0.0614
6.9167,-6.7459,-0.0624
6.9208,-6.7360,-0.0635
6.9250,-6.7257,-0.0647
6.9292,-6.7151,-0.0659
6.9333,-6.7029,-0.0644
6.9375,-6.6960,-0.0646
6.9417,-6.6895,-0.0647
6.9458,-6.6830,-0.0630
6.9500,-6.6803,-0.0626
6.9542,-6.6783,-0.0619
6.9583,-6.6777,-0.0613
6.9625,-6.6782,-0.0607
6.9667,-6.6793,-0.0602
6.9708,-6.6811,-0.0596
6.9750,-6.6834,-0.0591
6.9792,-6.6863,-0.0586
6.9833,-6.6895,-0.0582
6.9875,-6.6930,-0.0577
6.9917,-6.6968,-0.0573
6.9958,-6.7008,-0.0569
7.0000,-6.7048,-0.0566
7.0042,-6.7089,-0.0562
7.0083,-6.7130,-0.0559
7.0125,-6.7171,-0.0556
7.0167,-6.7211,-0.0554
7.0208,-6.7250,-0.0552
7.0250,-6.7288,-0.0550
7.0292,-6.7324,-0.0548
7.0333,-6.7358,-0.0547
7.0375,-6.7389,-0.0546
7.0417,-6.7419,-0.0545
7.0458,-6.7446,-0.0544
7.0500,-6.7470,-0.0544
7.0542,-6.7491,-0.0544
7.0583,-6.7510,-0.0545
7.0625,-6.7525,-0.0545
7.0667,-6.7537,-0.0546
7.0708,-6.7546,-0.0548
7.0750,-6.7552,-0.0549
7.0792,-6.7554,-0.0551
7.0833,-6.7553,-0.0554
7.0875,-6.7549,-0.0556
7.0917,-6.7540,-0.0559
7.0958,-6.7529,-0.0562
7.1000,-6.7514,-0.0566
7.1042,-6.7495,-0.0570
7.1083,-6.7472,-0.0574
7.1125,-6.7446,-0.0579
7.1167,-6.7416,-0.0584
7.1208,-6.7382,-0.0589
7.1250,-6.7345,-0.0594
7.1292,-6.7304,-0.0600
7.1333,-6.7260,-0.0606
7.1375,-6.7213,-0.0613
7.1417,-6.7163,-0.0619
7.1458,-6.7108,-0.0627
7.1500,-6.7048,-0.0634
7.1542,-6.6985,-0.0642
7.1583,-6.6919,-0.0651
7.1625,-6.6848,-0.0660
7.1667,-6.6774,-0.0669
7.1708,-6.6696,-0.0678
7.1750,-6.6614,-0.0688
7.1792,-6.6528,-0.0699
7.1833,-6.6439,-0.0710
7.1875,-6.6345,-0.0721
7.1917,-6.6234,-0.0705
7.1958,-6.6178,-0.0706
7.2000,-6.6126,-0.0707
7.2042,-6.6071,-0.0689
7.2083,-6.6054,-0.0684
7.2125,-6.6042,-0.0677
7.2167,-6.6042,-0.0671
7.2208,-6.6051,-0.0665
7.2250,-6.6067,-0.0659
7.2292,-6.6089,-0.0654
7.2333,-6.6117,-0.0649
7.2375,-6.6149,-0.0644
7.2417,-6.6184,-0.0639
7.2458,-6.6222,-0.0634
7.2500,-6.6261,-0.0630
7.2542,-6.6302,-0.0626
7.2583,-6.6344,-0.0623
7.2625,-6.6386,-0.0620
7.2667,-6.6427,-0.0617
7.2708,-6.6467,-0.0614
7.2750,-6.6507,-0.0612
7.2792,-6.6545,-0.0610
7.2833,-6.6581,-0.0608
7.2875,-6.6615,-0.0607
7.2917,-6.6648,-0.0606
7.2958,-6.6677,-0.0605
7.3000,-6.6704,-0.0604
7.3042,-6.6728,-0.0604
7.3083,-6.6750,-0.0605
7.3125,-6.6768,-0.0605
7.3167,-6.6782,-0.0606
7.3208,-6.6794,-0.0608
7.3250,-6.6802,-0.0609
7.3292,-6.6807,-0.0611
7.3333,-6.6808,-0.0614
7.3375,-6.6805,-0.0616
7.3417,-6.6799,-0.0619
7.3458,-6.6788,-0.0623
7.3500,-6.6775,-0.0627
7.3542,-6.6757,-0.0631
7.3583,-6.6735,-0.0635
7.3625,-6.6710,-0.0640
7.3667,-6.6680,-0.0645
7.3708,-6.6647,-0.0651
7.3750,-6.6610,-0.0657
7.3792,-6.6569,-0.0663
7.3833,-6.6524,-0.0670
7.3875,-6.6476,-0.0677
7.3917,-6.6423,-0.0684
7.3958,-6.6366,-0.0692
7.4000,-6.6305,-0.0700
7.4042,-6.6241,-0.0709
7.4083,-6.6172,-0.0718
7.4125,-6.6099,-0.0728
7.4167,-6.6022,-0.0738
7.4208,-6.5941,-0.0748
7.4250,-6.5855,-0.0759
7.4292,-6.5766,-0.0770
7.4333,-6.5658,-0.0753
7.4375,-6.5609,-0.0754
7.4417,-6.5553,-0.0735
7.4458,-6.5535,-0.0731
7.4500,-6.5523,-0.0723
7.4542,-6.5522,-0.0717
7.4583,-6.5530,-0.0711
7.4625,-6.5546,-0.0705
7.4667,-6.5568,-0.0699
7.4708,-6.5595,-0.0694
7.4750,-6.5626,-0.0689
7.4792,-6.5660,-0.0684
7.4833,-6.5697,-0.0679
7.4875,-6.5736,-0.0675
7.4917,-6.5776,-0.0671
7.4958,-6.5817,-0.0668
7.5000,-6.5858,-0.0665
7.5042,-6.5898,-0.0662
7.5083,-6.5937,-0.0659
7.5125,-6.5975,-0.0657
7.5167,-6.6012,-0.0656
7.5208,-6.6046,-0.0654
7.5250,-6.6078,-0.0653
7.5292,-6.6108,-0.0652
7.5333,-6.6136,-0.0652
7.5375,-6.6160,-0.0652
7.5417,-6.6182,-0.0652
7.5458,-6.6200,-0.0653
7.5500,-6.6215,-0.0654
7.5542,-6.6226,-0.0655
7.5583,-6.6234,-0.0657
7.5625,-6.6239,-0.0659
7.5667,-6.6239,-0.0662
7.5708,-6.6236,-0.0665
7.5750,-6.6229,-0.0668
7.5792,-6.6218,-0.0672
7.5833,-6.6204,-0.0676
7.5875,-6.6185,-0.0681
7.5917,-6.6162,-0.0685
7.5958,-6.6135,-0.0691
7.6000,-6.6104,-0.0696
7.6042,-6.6070,-0.0702
7.6083,-6.6031,-0.0708
7.6125,-6.5988,-0.0715
7.6167,-6.5941,-0.0722
7.6208,-6.5889,-0.0730
7.6250,-6.5834,-0.0738
7.6292,-6.5775,-0.0747
7.6333,-6.5711,-0.0756
7.6375,-6.5643,-0.0765
7.6417,-6.5571,-0.0775
7.6458,-6.5494,-0.0785
7.6500,-6.5413,-0.0796
7.6542,-6.5314,-0.0778
7.6583,-6.5272,-0.0779
7.6625,-6.5232,-0.0779
7.6667,-6.5189,-0.0760
7.6708,-6.5182,-0.0755
7.6750,-6.5178,-0.0748
7.6792,-6.5186,-0.0741
7.6833,-6.5201,-0.0735
7.6875,-6.5223,-0.0729
7.6917,-6.5250,-0.0723
7.6958,-6.5282,-0.0718
7.7000,-6.5317,-0.0713
7.7042,-6.5354,-0.0708
7.7083,-6.5394,-0.0704
7.7125,-6.5435,-0.0700
7.7167,-6.5477,-0.0696
7.7208,-6.5518,-0.0693
7.7250,-6.5560,-0.0690
7.7292,-6.5600,-0.0687
7.7333,-6.5640,-0.0685
7.7375,-6.5677,-0.0683
7.7417,-6.5713,-0.0681
7.7458,-6.5747,-0.0680
7.7500,-6.5778,-0.0679
7.7542,-6.5807,-0.0679
7.7583,-6.5833,-0.0679
7.7625,-6.5856,-0.0679
7.7667,-6.5876,-0.0679
7.7708,-6.5892,-0.0680
7.7750,-6.5905,-0.0682
7.7792,-6.5914,-0.0684
7.7833,-6.5920,-0.0686
7.7875,-6.5922,-0.0688
7.7917,-6.5920,-0.0691
7.7958,-6.5915,-0.0695
7.8000,-6.5905,-0.0698
7.8042,-6.5891,-0.0703
7.8083,-6.5873,-0.0707
7.8125,-6.5851,-0.0712
7.8167,-6.5824,-0.0717
7.8208,-6.5794,-0.0723
7.8250,-6.5760,-0.0729
7.8292,-6.5721,-0.0735
7.8333,-6.5679,-0.0742
7.8375,-6.5632,-0.0750
7.8417,-6.5581,-0.0758
7.8458,-6.5525,-0.0766
7.8500,-6.5422,-0.0293
7.8542,-6.5863,-0.0243
7.8583,-6.6557,-0.0178
7.8625,-6.7501,-0.0118
7.8667,-6.8660,-0.0062
7.8708,-6.9975,-0.0008
7.8750,-7.1383,0.0037
7.8792,-7.2808,0.0071
7.8833,-7.4181,0.0092
7.8875,-7.5447,0.0103
7.8917,-7.6568,0.0109
7.8958,-7.7520,0.0111
7.9000,-7.8478,-0.0963
7.9042,-7.8176,-0.0675
7.9083,-7.7861,-0.1100
7.9125,-7.7395,-0.1934
7.9167,-7.6503,-0.2060
7.9208,-7.5664,-0.2731
7.9250,-7.4531,-0.2720
7.9292,-7.2897,-0.3983
7.9333,-7.0847,-0.5468
7.9375,-6.8094,-0.6429
7.9417,-6.5172,-0.7037
7.9458,-6.1966,-0.7907
7.9500,-6.0294,-1.0266
7.9542,-5.6265,-0.8403
7.9583,-5.2945,-0.8664
7.9625,-5.1010,-1.0043
7.9667,-4.8730,-1.0030
7.9708,-4.6435,-1.0063
7.9750,-4.3804,-0.9953
7.9792,-4.1176,-0.9988
7.9833,-3.8550,-1.0019
7.9875,-3.5802,-0.9957
7.9917,-3.3070,-0.9987
7.9958,-3.0341,-1.0010
8.0000,-2.7561,-0.9938
8.0042,-2.4806,-0.9963
8.0083,-2.2056,-0.9977
8.0125,-1.9311,-0.9895
8.0167,-1.6597,-0.9915
8.0208,-1.3890,-0.9922
8.0250,-1.1223,-0.9850
8.0292,-0.8595,-0.9855
8.0333,-0.6003,-0.9844
8.0375,-0.3672,-0.9640
8.0417,-0.1376,-0.9651
8.0458,0.0911,-0.9651
8.0500,0.3074,-0.9610
8.0542,0.5159,-0.9582
8.0583,0.7227,-0.9578
8.0625,0.9230,-0.9443
8.0667,1.0847,-0.9401
8.0708,1.2439,-0.9397
8.0750,1.4020,-0.9386
8.0792,1.5462,-0.9255
8.0833,1.6869,-0.9251
8.0875,1.8266,-0.9237
8.0917,1.9494,-0.9176
8.0958,2.0624,-0.9062
8.1000,2.1697,-0.9062
8.1042,2.2760,-0.9046
8.1083,2.3689,-0.8933
8.1125,2.4389,-0.8922
8.1167,2.4989,-0.8893
8.1208,2.5574,-0.8876
8.1250,2.6169,-0.8723
8.1292,2.6754,-0.8704
8.1333,2.7328,-0.8685
8.1375,2.7813,-0.8661
8.1417,2.8239,-0.8489
8.1458,2.8566,-0.8498
8.1500,2.8821,-0.8473
8.1542,2.9031,-0.8451
8.1583,2.9183,-0.8428
8.1625,2.9193,-0.8244
8.1667,2.9065,-0.8242
8.1708,2.8808,-0.8216
8.1750,2.8436,-0.8196
8.1792,2.8055,-0.8063
8.1833,2.7708,-0.7982
8.1875,2.7269,-0.7968
8.1917,2.6776,-0.7946
8.1958,2.6238,-0.7922
8.2000,2.5657,-0.7900
8.2042,2.5129,-0.7766
8.2083,2.4228,-0.7755
8.2125,2.3149,-0.7733
8.2167,2.1995,-0.7711
8.2208,2.0881,-0.7683
8.2250,1.9944,-0.7548
8.2292,1.9183,-0.7455
8.2333,1.8351,-0.7444
8.2375,1.7492,-0.7420
8.2417,1.6609,-0.7400
8.2458,1.5705,-0.7380
8.2500,1.4942,-0.7232
8.2542,1.4116,-0.7206
8.2583,1.3303,-0.7177
8.2625,1.2532,-0.7148
8.2667,1.1800,-0.7123
8.2708,1.1109,-0.7100
8.2750,1.0521,-0.6971
8.2792,1.0123,-0.6887
8.2833,0.9633,-0.6876
8.2875,0.9101,-0.6860
8.2917,0.8540,-0.6844
8.2958,0.7952,-0.6833
8.3000,0.7364,-0.6742
8.3042,0.6876,-0.6654
8.3083,0.6186,-0.6644
8.3125,0.5408,-0.6626
8.3167,0.4611,-0.6606
8.3208,0.3835,-0.6585
8.3250,0.3097,-0.6568
8.3292,0.2542,-0.6413
8.3333,0.1942,-0.6393
8.3375,0.1341,-0.6371
8.3417,0.0758,-0.6350
8.3458,0.0201,-0.6332
8.3500,-0.0318,-0.6316
8.3542,-0.0740,-0.6201
8.3583,-0.1036,-0.6121
8.3625,-0.1449,-0.6116
8.3667,-0.1904,-0.6107
8.3708,-0.2377,-0.6095
8.3750,-0.2864,-0.6084
8.3792,-0.3375,-0.6075
8.3833,-0.3913,-0.5931
8.3875,-0.4410,-0.5891
8.3917,-0.4962,-0.5882
8.3958,-0.5534,-0.5871
8.4000,-0.6157,-0.5849
8.4042,-0.6754,-0.5830
8.4083,-0.7307,-0.5814
8.4125,-0.7819,-0.5800
8.4167,-0.8201,-0.5656
8.4208,-0.8698,-0.5644
8.4250,-0.9222,-0.5627
8.4292,-0.9736,-0.5610
8.4333,-1.0227,-0.5594
8.4375,-1.0690,-0.5580
8.4417,-1.1124,-0.5568
8.4458,-1.1452,-0.5432
8.4500,-1.1905,-0.5424
8.4542,-1.2363,-0.5406
8.4583,-1.2807,-0.5388
8.4625,-1.3232,-0.5372
8.4667,-1.3636,-0.5358
8.4708,-1.4018,-0.5346
8.4750,-1.4382,-0.5336
8.4792,-1.4652,-0.5200
8.4833,-1.5078,-0.5192
8.4875,-1.5539,-0.5177
8.4917,-1.5993,-0.5161
8.4958,-1.6425,-0.5146
8.5000,-1.6831,-0.5135
8.5042,-1.7192,-0.5123
8.5083,-1.7522,-0.5114
8.5125,-1.7758,-0.4981
8.5167,-1.8149,-0.4974
8.5208,-1.8574,-0.4960
8.5250,-1.8989,-0.4944
8.5292,-1.9384,-0.4932
8.5333,-1.9738,-0.4919
8.5375,-2.0062,-0.4908
8.5417,-2.0364,-0.4900
8.5458,-2.0609,-0.4806
8.5500,-2.0799,-0.4740
8.5542,-2.1106,-0.4743
8.5583,-2.1438,-0.4737
8.5625,-2.1834,-0.4726
8.5667,-2.2250,-0.4714
8.5708,-2.2636,-0.4702
8.5750,-2.2991,-0.4693
8.5792,-2.3308,-0.4686
8.5833,-2.3527,-0.4558
8.5875,-2.3879,-0.4550
8.5917,-2.4250,-0.4536
8.5958,-2.4608,-0.4523
8.6000,-2.4932,-0.4509
8.6042,-2.5230,-0.4497
8.6083,-2.5509,-0.4487
8.6125,-2.5770,-0.4480
8.6167,-2.6014,-0.4475
8.6208,-2.6208,-0.4386
8.6250,-2.6362,-0.4326
8.6292,-2.6625,-0.4330
8.6333,-2.6954,-0.4320
8.6375,-2.7296,-0.4310
8.6417,-2.7629,-0.4300
8.6458,-2.7940,-0.4290
8.6500,-2.8228,-0.4283
8.6542,-2.8490,-0.4276
8.6583,-2.8700,-0.4189
8.6625,-2.8873,-0.4135
8.6667,-2.9138,-0.4139
8.6708,-2.9452,-0.4129
8.6750,-2.9772,-0.4113
8.6792,-3.0064,-0.4100
8.6833,-3.0334,-0.4090
8.6875,-3.0582,-0.4081
8.6917,-3.0813,-0.4074
8.6958,-3.1026,-0.4070
8.7000,-3.1191,-0.3986
8.7042,-3.1329,-0.3931
8.7083,-3.1564,-0.3934
8.7125,-3.1846,-0.3930
8.7167,-3.2147,-0.3912
8.7208,-3.2422,-0.3899
8.7250,-3.2674,-0.3889
8.7292,-3.2906,-0.3881
8.7333,-3.3121,-0.3874
8.7375,-3.3319,-0.3870
8.7417,-3.3501,-0.3868
8.7458,-3.3620,-0.3758
8.7500,-3.3864,-0.3753
8.7542,-3.4117,-0.3739
8.7583,-3.4360,-0.3726
8.7625,-3.4590,-0.3714
8.7667,-3.4806,-0.3704
8.7708,-3.5008,-0.3696
8.7750,-3.5197,-0.3690
8.7792,-3.5371,-0.3685
8.7833,-3.5533,-0.3683
8.7875,-3.5686,-0.3682
8.7917,-3.5780,-0.3574
8.7958,-3.6005,-0.3569
8.8000,-3.6241,-0.3557
8.8042,-3.6468,-0.3545
8.8083,-3.6679,-0.3534
8.8125,-3.6872,-0.3524
8.8167,-3.7050,-0.3517
8.8208,-3.7216,-0.3511
8.8250,-3.7371,-0.3506
8.8292,-3.7513,-0.3504
8.8333,-3.7644,-0.3503
8.8375,-3.7736,-0.3431
8.8417,-3.7812,-0.3379
8.8458,-3.8017,-0.3382
8.8500,-3.8245,-0.3371
8.8542,-3.8464,-0.3360
8.8583,-3.8670,-0.3351
8.8625,-3.8863,-0.3343
8.8667,-3.9041,-0.3336
8.8708,-3.9205,-0.3330
8.8750,-3.9352,-0.3327
8.8792,-3.9484,-0.3325
8.8833,-3.9603,-0.3325
8.8875,-3.9683,-0.3254
8.8917,-3.9753,-0.3206
8.8958,-3.9947,-0.3207
8.9000,-4.0154,-0.3197
8.9042,-4.0352,-0.3185
8.9083,-4.0537,-0.3177
8.9125,-4.0711,-0.3169
8.9167,-4.0873,-0.3162
8.9208,-4.1020,-0.3156
8.9250,-4.1153,-0.3153
8.9292,-4.1274,-0.3151
8.9333,-4.1383,-0.3151
8.9375,-4.1482,-0.3152
8.9417,-4.1530,-0.3055
8.9458,-4.1700,-0.3051
8.9500,-4.1877,-0.3039
8.9542,-4.2047,-0.3027
8.9583,-4.2207,-0.3018
8.9625,-4.2353,-0.3009
8.9667,-4.2491,-0.3001
8.9708,-4.2620,-0.2995
8.9750,-4.2740,-0.2991
8.9792,-4.2851,-0.2988
8.9833,-4.2953,-0.2987
8.9875,-4.3046,-0.2987
8.9917,-4.3129,-0.2988
8.9958,-4.3178,-0.2925
9.0000,-4.3223,-0.2880
9.0042,-4.3387,-0.2881
9.0083,-4.3559,-0.2870
9.0125,-4.3722,-0.2860
9.0167,-4.3876,-0.2851
9.0208,-4.4020,-0.2843
9.0250,-4.4155,-0.2837
9.0292,-4.4283,-0.2831
9.0333,-4.4400,-0.2828
9.0375,-4.4506,-0.2827
9.0417,-4.4600,-0.2826
9.0458,-4.4683,-0.2827
9.0500,-4.4756,-0.2829
9.0542,-4.4794,-0.2767
9.0583,-4.4834,-0.2724
9.0625,-4.4986,-0.2724
9.0667,-4.5142,-0.2714
9.0708,-4.5291,-0.2703
9.0750,-4.5431,-0.2694
9.0792,-4.5562,-0.2687
9.0833,-4.5685,-0.2681
9.0875,-4.5799,-0.2675
9.0917,-4.5905,-0.2672
9.0958,-4.6006,-0.2669
9.1000,-4.6095,-0.2669
9.1042,-4.6175,-0.2670
9.1083,-4.6244,-0.2672
9.1125,-4.6303,-0.2675
9.1167,-4.6318,-0.2590
9.1208,-4.6448,-0.2586
9.1250,-4.6580,-0.2575
9.1292,-4.6707,-0.2564
9.1333,-4.6828,-0.2555
9.1375,-4.6942,-0.2546
9.1417,-4.7051,-0.2539
9.1458,-4.7153,-0.2533
9.1500,-4.7250,-0.2528
9.1542,-4.7340,-0.2525
9.1583,-4.7423,-0.2523
9.1625,-4.7499,-0.2522
9.1667,-4.7567,-0.2522
9.1708,-4.7628,-0.2524
9.1750,-4.7680,-0.2527
9.1792,-4.7703,-0.2473
9.1833,-4.7732,-0.2433
9.1875,-4.7867,-0.2431
9.1917,-4.8000,-0.2420
9.1958,-4.8127,-0.2409
9.2000,-4.8249,-0.2400
9.2042,-4.8368,-0.2392
9.2083,-4.8478,-0.2385
9.2125,-4.8581,-0.2380
9.2167,-4.8676,-0.2376
9.2208,-4.8764,-0.2372
9.2250,-4.8845,-0.2370
9.2292,-4.8919,-0.2370
9.2333,-4.8985,-0.2370
9.2375,-4.9043,-0.2372
9.2417,-4.9094,-0.2375
9.2458,-4.9136,-0.2379
9.2500,-4.9140,-0.2301
9.2542,-4.9253,-0.2297
9.2583,-4.9364,-0.2286
9.2625,-4.9471,-0.2275
9.2667,-4.9575,-0.2266
9.2708,-4.9675,-0.2257
9.2750,-4.9773,-0.2250
9.2792,-4.9865,-0.2243
9.2833,-4.9954,-0.2238
9.2875,-5.0036,-0.2234
9.2917,-5.0114,-0.2231
9.2958,-5.0185,-0.2230
9.3000,-5.0249,-0.2229
9.3042,-5.0307,-0.2230
9.3083,-5.0358,-0.2232
9.3125,-5.0401,-0.2235
9.3167,-5.0438,-0.2239
9.3208,-5.0446,-0.2190
9.3250,-5.0469,-0.2153
9.3292,-5.0585,-0.2150
9.3333,-5.0696,-0.2138
9.3375,-5.0804,-0.2128
9.3417,-5.0909,-0.2119
9.3458,-5.1011,-0.2111
9.3500,-5.1108,-0.2104
9.3542,-5.1201,-0.2098
9.3583,-5.1287,-0.2093
9.3625,-5.1368,-0.2090
9.3667,-5.1443,-0.2087
9.3708,-5.1513,-0.2085
9.3750,-5.1575,-0.2085
9.3792,-5.1632,-0.2085
9.3833,-5.1681,-0.2087
9.3875,-5.1724,-0.2090
9.3917,-5.1759,-0.2094
9.3958,-5.1786,-0.2099
9.4000,-5.1786,-0.2052
9.4042,-5.1805,-0.2018
9.4083,-5.1911,-0.2013
9.4125,-5.2010,-0.2003
9.4167,-5.2109,-0.1993
9.4208,-5.2204,-0.1984
9.4250,-5.2298,-0.1976
9.4292,-5.2387,-0.1969
9.4333,-5.2473,-0.1964
9.4375,-5.2554,-0.1959
9.4417,-5.2630,-0.1955
9.4458,-5.2701,-0.1953
9.4500,-5.2766,-0.1951
9.4542,-5.2825,-0.1951
9.4583,-5.2877,-0.1952
9.4625,-5.2923,-0.1953
9.4667,-5.2962,-0.1956
9.4708,-5.2995,-0.1959
9.4750,-5.3020,-0.1964
9.4792,-5.3038,-0.1970
9.4833,-5.3029,-0.1925
9.4875,-5.3044,-0.1892
9.4917,-5.3140,-0.1887
9.4958,-5.3230,-0.1877
9.5000,-5.3319,-0.1867
9.5042,-5.3407,-0.1858
9.5083,-5.3494,-0.1851
9.5125,-5.3577,-0.1844
9.5167,-5.3657,-0.1839
9.5208,-5.3734,-0.1834
9.5250,-5.3806,-0.1830
9.5292,-5.3873,-0.1827
9.5333,-5.3935,-0.1825
9.5375,-5.3992,-0.1824
9.5417,-5.4044,-0.1824
9.5458,-5.4089,-0.1825
9.5500,-5.4129,-0.1828
9.5542,-5.4161,-0.1831
9.5583,-5.4186,-0.1835
9.5625,-5.4205,-0.1840
9.5667,-5.4217,-0.1846
9.5708,-5.4203,-0.1805
9.5750,-5.4214,-0.1773
9.5792,-5.4303,-0.1768
9.5833,-5.4385,-0.1757
9.5875,-5.4468,-0.1747
9.5917,-5.4551,-0.1738
9.5958,-5.4633,-0.1730
9.6000,-5.4713,-0.1723
9.6042,-5.4791,-0.1718
9.6083,-5.4865,-0.1712
9.6125,-5.4935,-0.1708
9.6167,-5.5002,-0.1704
9.6208,-5.5065,-0.1702
9.6250,-5.5123,-0.1700
9.6292,-5.5176,-0.1700
9.6333,-5.5224,-0.1700
9.6375,-5.5266,-0.1701
9.6417,-5.5302,-0.1703
9.6458,-5.5332,-0.1706
9.6500,-5.5356,-0.1710
9.6542,-5.5373,-0.1715
9.6583,-5.5384,-0.1720
9.6625,-5.5388,-0.1727
9.6667,-5.5366,-0.1688
9.6708,-5.5373,-0.1658
9.6750,-5.5453,-0.1652
9.6792,-5.5527,-0.1641
9.6833,-5.5602,-0.1632
9.6875,-5.5678,-0.1624
9.6917,-5.5754,-0.1616
9.6958,-5.5828,-0.1609
9.7000,-5.5900,-0.1603
9.7042,-5.5970,-0.1598
9.7083,-5.6037,-0.1594
9.7125,-5.6101,-0.1590
9.7167,-5.6161,-0.1588
9.7208,-5.6217,-0.1586
9.7250,-5.6268,-0.1585
9.7292,-5.6314,-0.1585
9.7333,-5.6355,-0.1586
9.7375,-5.6390,-0.1588
9.7417,-5.6419,-0.1590
9.7458,-5.6443,-0.1593
9.7500,-5.6460,-0.1598
9.7542,-5.6471,-0.1603
9.7583,-5.6475,-0.1609
9.7625,-5.6473,-0.1616
9.7667,-5.6447,-0.1580
9.7708,-5.6452,-0.1551
9.7750,-5.6523,-0.1544
9.7792,-5.6590,-0.1533
9.7833,-5.6660,-0.1524
9.7875,-5.6732,-0.1515
9.7917,-5.6803,-0.1508
9.7958,-5.6875,-0.1501
9.8000,-5.6945,-0.1494
9.8042,-5.7014,-0.1489
9.8083,-5.7080,-0.1484
9.8125,-5.7144,-0.1480
9.8167,-5.7205,-0.1477
9.8208,-5.7262,-0.1474
9.8250,-5.7315,-0.1472
9.8292,-5.7364,-0.1471
9.8333,-5.7408,-0.1471
9.8375,-5.7447,-0.1472
9.8417,-5.7481,-0.1474
9.8458,-5.7509,-0.1476
9.8500,-5.7532,-0.1479
9.8542,-5.7549,-0.1483
9.8583,-5.7560,-0.1488
9.8625,-5.7564,-0.1493
9.8667,-5.7563,-0.1500
9.8708,-5.7555,-0.1507
9.8750,-5.7523,-0.1474
9.8792,-5.7539,-0.1446
9.8833,-5.7599,-0.1438
9.8875,-5.7658,-0.1428
9.8917,-5.7721,-0.1419
9.8958,-5.7786,-0.1410
9.9000,-5.7852,-0.1403
9.9042,-5.7919,-0.1395
9.9083,-5.7986,-0.1389
9.9125,-5.8052,-0.1383
9.9167,-5.8116,-0.1378
9.9208,-5.8179,-0.1374
9.9250,-5.8239,-0.1370
9.9292,-5.8296,-0.1367
9.9333,-5.8350,-0.1365
9.9375,-5.8400,-0.1363
9.9417,-5.8445,-0.1363
9.9458,-5.8486,-0.1363
9.9500,-5.8523,-0.1363
9.9542,-5.8555,-0.1365
9.9583,-5.8581,-0.1367
9.9625,-5.8602,-0.1370
9.9667,-5.8617,-0.1374
9.9708,-5.8627,-0.1378
9.9750,-5.8631,-0.1384
9.9792,-5.8628,-0.1390
9.9833,-5.8620,-0.1397
9.9875,-5.8605,-0.1404
9.9917,-5.8567,-0.1373
9.9958,-5.8578,-0.1346
10.0000,-5.8632,-0.1338
10.0042,-5.8684,-0.1328
10.0083,-5.8741,-0.1319
10.0125,-5.8801,-0.1310
10.0167,-5.8864,-0.1303
10.0208,-5.8927,-0.1295
10.0250,-5.8991,-0.1289
10.0292,-5.9054,-0.1283
10.0333,-5.9117,-0.1278
10.0375,-5.9178,-0.1273
10.0417,-5.9237,-0.1269
10.0458,-5.9294,-0.1265
10.0500,-5.9348,-0.1263
10.0542,-5.9399,-0.1261
10.0583,-5.9447,-0.1259
10.0625,-5.9490,-0.1259
10.0667,-5.9530,-0.1259
10.0708,-5.9564,-0.1259
10.0750,-5.9594,-0.1261
10.0792,-5.9619,-0.1263
10.0833,-5.9639,-0.1266
10.0875,-5.9653,-0.1269
10.0917,-5.9662,-0.1273
10.0958,-5.9665,-0.1278
10.1000,-5.9662,-0.1284
10.1042,-5.9653,-0.1291
10.1083,-5.9639,-0.1298
10.1125,-5.9618,-0.1306
10.1167,-5.9575,-0.1277
10.1208,-5.9592,-0.1275
10.1250,-5.9598,-0.1247
10.1292,-5.9646,-0.1241
10.1333,-5.9691,-0.1232
10.1375,-5.9741,-0.1224
10.1417,-5.9794,-0.1216
10.1458,-5.9849,-0.1209
10.1500,-5.9907,-0.1202
10.1542,-5.9964,-0.1196
10.1583,-6.0022,-0.1191
10.1625,-6.0080,-0.1186
10.1667,-6.0136,-0.1181
10.1708,-6.0190,-0.1178
10.1750,-6.0243,-0.1175
10.1792,-6.0292,-0.1172
10.1833,-6.0339,-0.1171
10.1875,-6.0382,-0.1169
10.1917,-6.0423,-0.1168
10.1958,-6.0459,-0.1168
10.2000,-6.0491,-0.1169
10.2042,-6.0519,-0.1171
10.2083,-6.0542,-0.1172
10.2125,-6.0560,-0.1175
10.2167,-6.0573,-0.1178
10.2208,-6.0581,-0.1182
10.2250,-6.0584,-0.1187
10.2292,-6.0581,-0.1192
10.2333,-6.0572,-0.1198
10.2375,-6.0558,-0.1205
10.2417,-6.0538,-0.1212
10.2458,-6.0512,-0.1220
10.2500,-6.0480,-0.1229
10.2542,-6.0426,-0.1201
10.2583,-6.0435,-0.1200
10.2625,-6.0432,-0.1174
10.2667,-6.0468,-0.1168
10.2708,-6.0503,-0.1159
10.2750,-6.0544,-0.1152
10.2792,-6.0589,-0.1144
10.2833,-6.0637,-0.1138
10.2875,-6.0686,-0.1132
10.2917,-6.0737,-0.1126
10.2958,-6.0788,-0.1121
10.3000,-6.0840,-0.1116
10.3042,-6.0890,-0.1112
10.3083,-6.0939,-0.1109
10.3125,-6.0986,-0.1106
10.3167,-6.1031,-0.1104
10.3208,-6.1074,-0.1103
10.3250,-6.1113,-0.1102
10.3292,-6.1149,-0.1101
10.3333,-6.1181,-0.1101
10.3375,-6.1209,-0.1102
10.3417,-6.1234,-0.1103
10.3458,-6.1253,-0.1105
10.3500,-6.1269,-0.1108
10.3542,-6.1279,-0.1111
10.3583,-6.1285,-0.1114
10.3625,-6.1286,-0.1119
10.3667,-6.1282,-0.1124
10.3708,-6.1272,-0.1130
10.3750,-6.1257,-0.1136
10.3792,-6.1236,-0.1143
10.3833,-6.1210,-0.1150
10.3875,-6.1178,-0.1159
10.3917,-6.1141,-0.1168
10.3958,-6.1081,-0.1141
10.4000,-6.1085,-0.1140
10.4042,-6.1078,-0.1116
10.4083,-6.1109,-0.1109
10.4125,-6.1138,-0.1101
10.4167,-6.1176,-0.1093
10.4208,-6.1217,-0.1086
10.4250,-6.1261,-0.1079
10.4292,-6.1309,-0.1073
10.4333,-6.1358,-0.1067
10.4375,-6.1407,-0.1062
10.4417,-6.1457,-0.1057
10.4458,-6.1507,-0.1053
10.4500,-6.1556,-0.1049
10.4542,-6.1603,-0.1046
10.4583,-6.1649,-0.1044
10.4625,-6.1692,-0.1042
10.4667,-6.1732,-0.1041
10.4708,-6.1770,-0.1040
10.4750,-6.1804,-0.1039
10.4792,-6.1834,-0.1040
10.4833,-6.1860,-0.1041
10.4875,-6.1883,-0.1042
10.4917,-6.1901,-0.1044
10.4958,-6.1915,-0.1046
10.5000,-6.1924,-0.1049
10.5042,-6.1929,-0.1053
10.5083,-6.1928,-0.1057
10.5125,-6.1923,-0.1062
10.5167,-6.1912,-0.1068
10.5208,-6.1897,-0.1074
10.5250,-6.1876,-0.1080
10.5292,-6.1849,-0.1088
10.5333,-6.1817,-0.1096
10.5375,-6.1780,-0.1104
10.5417,-6.1737,-0.1114
10.5458,-6.1672,-0.1089
10.5500,-6.1670,-0.1088
10.5542,-6.1658,-0.1065
10.5583,-6.1682,-0.1058
10.5625,-6.1706,-0.1050
10.5667,-6.1738,-0.1042
10.5708,-6.1775,-0.1035
10.5750,-6.1816,-0.1028
10.5792,-6.1860,-0.1022
10.5833,-6.1906,-0.1017
10.5875,-6.1954,-0.1011
10.5917,-6.2002,-0.1007
10.5958,-6.2050,-0.1002
10.6000,-6.2098,-0.0999
10.6042,-6.2145,-0.0995
10.6083,-6.2189,-0.0993
10.6125,-6.2232,-0.0991
10.6167,-6.2273,-0.0989
10.6208,-6.2310,-0.0988
10.6250,-6.2344,-0.0987
10.6292,-6.2376,-0.0987
10.6333,-6.2403,-0.0988
10.6375,-6.2427,-0.0989
10.6417,-6.2446,-0.0990
10.6458,-6.2463,-0.0992
10.6500,-6.2474,-0.0995
10.6542,-6.2481,-0.0998
10.6583,-6.2484,-0.1002
10.6625,-6.2482,-0.1006
10.6667,-6.2474,-0.1011
10.6708,-6.2462,-0.1016
10.6750,-6.2445,-0.1022
10.6792,-6.2423,-0.1029
10.6833,-6.2395,-0.1036
10.6875,-6.2363,-0.1044
10.6917,-6.2324,-0.1052
10.6958,-6.2281,-0.1061
10.7000,-6.2231,-0.1071
10.7042,-6.2160,-0.1046
10.7083,-6.2143,-0.1023
10.7125,-6.2162,-0.1016
10.7167,-6.2182,-0.1007
10.7208,-6.2212,-0.1000
10.7250,-6.2246,-0.0992
10.7292,-6.2286,-0.0985
10.7333,-6.2329,-0.0978
10.7375,-6.2375,-0.0972
10.7417,-6.2423,-0.0967
10.7458,-6.2472,-0.0961
10.7500,-6.2521,-0.0957
10.7542,-6.2571,-0.0953
10.7583,-6.2619,-0.0949
10.7625,-6.2667,-0.0945
10.7667,-6.2713,-0.0943
10.7708,-6.2757,-0.0940
10.7750,-6.2799,-0.0939
10.7792,-6.2838,-0.0937
10.7833,-6.2874,-0.0937
10.7875,-6.2906,-0.0936
10.7917,-6.2936,-0.0937
10.7958,-6.2961,-0.0937
10.8000,-6.2983,-0.0939
10.8042,-6.3000,-0.0940
10.8083,-6.3013,-0.0943
10.8125,-6.3022,-0.0945
10.8167,-6.3030,-0.0949
10.8208,-6.3030,-0.0953
10.8250,-6.3024,-0.0957
10.8292,-6.3014,-0.0962
10.8333,-6.3000,-0.0967
10.8375,-6.2980,-0.0973
10.8417,-6.2955,-0.0980
10.8458,-6.2925,-0.0987
10.8500,-6.2890,-0.0995
10.8542,-6.2850,-0.1003
10.8583,-6.2804,-0.1012
10.8625,-6.2753,-0.1022
10.8667,-6.2681,-0.0999
10.8708,-6.2671,-0.0999
10.8750,-6.2651,-0.0976
10.8792,-6.2666,-0.0970
10.8833,-6.2684,-0.0962
10.8875,-6.2710,-0.0954
10.8917,-6.2742,-0.0947
10.8958,-6.2779,-0.0940
10.9000,-6.2819,-0.0934
10.9042,-6.2863,-0.0928
10.9083,-6.2908,-0.0923
10.9125,-6.2955,-0.0918
10.9167,-6.3003,-0.0913
10.9208,-6.3051,-0.0909
10.9250,-6.3098,-0.0905
10.9292,-6.3144,-0.0902
10.9333,-6.3188,-0.0899
10.9375,-6.3231,-0.0897
10.9417,-6.3272,-0.0895
10.9458,-6.3310,-0.0894
10.9500,-6.3345,-0.0893
10.9542,-6.3378,-0.0893
10.9583,-6.3406,-0.0893
10.9625,-6.3431,-0.0894
10.9667,-6.3453,-0.0895
10.9708,-6.3470,-0.0896
10.9750,-6.3484,-0.0899
10.9792,-6.3493,-0.0901
10.9833,-6.3498,-0.0904
10.9875,-6.3498,-0.0908
10.9917,-6.3494,-0.0912
10.9958,-6.3486,-0.0916
11.0000,-6.3473,-0.0921
11.0042,-6.3455,-0.0927
11.0083,-6.3432,-0.0933
11.0125,-6.3404,-0.0940
11.0167,-6.3371,-0.0947
11.0208,-6.3333,-0.0955
11.0250,-6.3290,-0.0963
11.0292,-6.3242,-0.0972
11.0333,-6.3189,-0.0982
11.0375,-6.3130,-0.0992
11.0417,-6.3050,-0.0969
11.0458,-6.3034,-0.0970
11.0500,-6.3007,-0.0948
11.0542,-6.3017,-0.0942
11.0583,-6.3028,-0.0934
11.0625,-6.3049,-0.0927
11.0667,-6.3075,-0.0920
11.0708,-6.3107,-0.0914
11.0750,-6.3142,-0.0908
11.0792,-6.3181,-0.0903
11.0833,-6.3221,-0.0898
11.0875,-6.3263,-0.0893
11.0917,-6.3306,-0.0889
11.0958,-6.3349,-0.0885
11.1000,-6.3392,-0.0882
11.1042,-6.3434,-0.0879
11.1083,-6.3475,-0.0876
11.1125,-6.3514,-0.0874
11.1167,-6.3550,-0.0873
11.1208,-6.3585,-0.0872
11.1250,-6.3616,-0.0871
11.1292,-6.3644,-0.0871
11.1333,-6.3669,-0.0872
11.1375,-6.3691,-0.0873
11.1417,-6.3709,-0.0874
11.1458,-6.3723,-0.0876
11.1500,-6.3732,-0.0879
11.1542,-6.3738,-0.0881
11.1583,-6.3739,-0.0885
11.1625,-6.3736,-0.0888
11.1667,-6.3729,-0.0893
11.1708,-6.3717,-0.0897
11.1750,-6.3700,-0.0903
11.1792,-6.3679,-0.0908
11.1833,-6.3654,-0.0915
11.1875,-6.3623,-0.0922
11.1917,-6.3587,-0.0929
11.1958,-6.3547,-0.0937
11.2000,-6.3502,-0.0945
11.2042,-6.3451,-0.0954
11.2083,-6.3395,-0.0964
11.2125,-6.3335,-0.0974
11.2167,-6.3253,-0.0952
11.2208,-6.3225,-0.0930
11.2250,-6.3232,-0.0924
11.2292,-6.3242,-0.0915
11.2333,-6.3262,-0.0908
11.2375,-6.3288,-0.0900
11.2417,-6.3321,-0.0894
11.2458,-6.3357,-0.0887
11.2500,-6.3397,-0.0881
11.2542,-6.3441,-0.0875
11.2583,-6.3486,-0.0870
11.2625,-6.3532,-0.0865
11.2667,-6.3579,-0.0861
11.2708,-6.3626,-0.0857
11.2750,-6.3672,-0.0853
11.2792,-6.3718,-0.0850
11.2833,-6.3762,-0.0848
11.2875,-6.3804,-0.0845
11.2917,-6.3844,-0.0844
11.2958,-6.3881,-0.0842
11.3000,-6.3916,-0.0842
11.3042,-6.3948,-0.0841
11.3083,-6.3976,-0.0841
11.3125,-6.4001,-0.0842
11.3167,-6.4022,-0.0843
11.3208,-6.4040,-0.0844
11.3250,-6.4053,-0.0846
11.3292,-6.4062,-0.0849
11.3333,-6.4067,-0.0852
11.3375,-6.4068,-0.0855
11.3417,-6.4064,-0.0859
11.3458,-6.4055,-0.0863
11.3500,-6.4043,-0.0868
11.3542,-6.4025,-0.0873
11.3583,-6.4004,-0.0879
11.3625,-6.3977,-0.0885
11.3667,-6.3946,-0.0892
11.3708,-6.3910,-0.0899
11.3750,-6.3869,-0.0907
11.3792,-6.3823,-0.0915
11.3833,-6.3772,-0.0924
11.3875,-6.3716,-0.0934
11.3917,-6.3655,-0.0944
11.3958,-6.3574,-0.0923
11.4000,-6.3553,-0.0923
11.4042,-6.3524,-0.0902
11.4083,-6.3531,-0.0896
11.4125,-6.3540,-0.0887
11.4167,-6.3559,-0.0880
11.4208,-6.3586,-0.0873
11.4250,-6.3617,-0.0867
11.4292,-6.3653,-0.0860
11.4333,-6.3692,-0.0855
11.4375,-6.3734,-0.0849
11.4417,-6.3778,-0.0844
11.4458,-6.3823,-0.0840
11.4500,-6.3869,-0.0835
11.4542,-6.3915,-0.0832
11.4583,-6.3960,-0.0828
11.4625,-6.4004,-0.0825
11.4667,-6.4046,-0.0823
11.4708,-6.4087,-0.0821
11.4750,-6.4126,-0.0819
11.4792,-6.4162,-0.0818
11.4833,-6.4195,-0.0817
11.4875,-6.4225,-0.0817
11.4917,-6.4252,-0.0817
11.4958,-6.4276,-0.0818
11.5000,-6.4296,-0.0819
11.5042,-6.4313,-0.0820
11.5083,-6.4325,-0.0822
11.5125,-6.4334,-0.0825
11.5167,-6.4338,-0.0827
11.5208,-6.4338,-0.0831
11.5250,-6.4334,-0.0835
11.5292,-6.4325,-0.0839
11.5333,-6.4312,-0.0843
11.5375,-6.4295,-0.0848
11.5417,-6.4273,-0.0854
11.5458,-6.4246,-0.0860
11.5500,-6.4215,-0.0867
11.5542,-6.4183,-0.0874
11.5583,-6.4142,-0.0882
11.5625,-6.4096,-0.0890
11.5667,-6.4045,-0.0898
11.5708,-6.3990,-0.0908
11.5750,-6.3929,-0.0917
11.5792,-6.3864,-0.0928
11.5833,-6.3778,-0.0907
11.5875,-6.3754,-0.0907
11.5917,-6.3721,-0.0886
11.5958,-6.3723,-0.0881
11.6000,-6.3729,-0.0873
11.6042,-6.3745,-0.0866
11.6083,-6.3767,-0.0859
11.6125,-6.3795,-0.0853
11.6167,-6.3828,-0.0847
11.6208,-6.3864,-0.0841
11.6250,-6.3903,-0.0836
11.6292,-6.3945,-0.0831
11.6333,-6.3987,-0.0827
11.6375,-6.4030,-0.0823
11.6417,-6.4074,-0.0819
11.6458,-6.4116,-0.0816
11.6500,-6.4158,-0.0813
11.6542,-6.4199,-0.0811
11.6583,-6.4237,-0.0809
11.6625,-6.4274,-0.0807
11.6667,-6.4308,-0.0806
11.6708,-6.4339,-0.0806
11.6750,-6.4368,-0.0806
11.6792,-6.4393,-0.0806
11.6833,-6.4414,-0.0807
11.6875,-6.4432,-0.0808
11.6917,-6.4447,-0.0810
11.6958,-6.4457,-0.0812
11.7000,-6.4464,-0.0814
11.7042,-6.4466,-0.0817
11.7083,-6.4464,-0.0821
11.7125,-6.4458,-0.0825
11.7167,-6.4448,-0.0829
11.7208,-6.4433,-0.0833
11.7250,-6.4415,-0.0839
11.7292,-6.4391,-0.0844
11.7333,-6.4363,-0.0851
11.7375,-6.4331,-0.0857
11.7417,-6.4294,-0.0864
11.7458,-6.4252,-0.0872
11.7500,-6.4205,-0.0880
11.7542,-6.4154,-0.0889
11.7583,-6.4097,-0.0898
11.7625,-6.4036,-0.0908
11.7667,-6.3969,-0.0918
11.7708,-6.3883,-0.0897
11.7750,-6.3859,-0.0898
11.7792,-6.3825,-0.0877
11.7833,-6.3828,-0.0871
11.7875,-6.3833,-0.0863
11.7917,-6.3849,-0.0856
11.7958,-6.3871,-0.0850
11.8000,-6.3899,-0.0843
11.8042,-6.3932,-0.0837
11.8083,-6.3968,-0.0832
11.8125,-6.4007,-0.0826
11.8167,-6.4048,-0.0822
11.8208,-6.4091,-0.0817
11.8250,-6.4134,-0.0813
11.8292,-6.4178,-0.0809
11.8333,-6.4221,-0.0806
11.8375,-6.4263,-0.0803
11.8417,-6.4304,-0.0801
11.8458,-6.4343,-0.0799
11.8500,-6.4380,-0.0797
11.8542,-6.4415,-0.0796
11.8583,-6.4447,-0.0796
11.8625,-6.4476,-0.0795
11.8667,-6.4502,-0.0796
11.8708,-6.4524,-0.0796
11.8750,-6.4543,-0.0797
11.8792,-6.4559,-0.0799
11.8833,-6.4570,-0.0801
11.8875,-6.4577,-0.0803
11.8917,-6.4581,-0.0806
11.8958,-6.4580,-0.0809
11.9000,-6.4575,-0.0813
11.9042,-6.4565,-0.0817
11.9083,-6.4551,-0.0822
11.9125,-6.4533,-0.0827
11.9167,-6.4511,-0.0833
11.9208,-6.4484,-0.0839
11.9250,-6.4452,-0.0845
11.9292,-6.4416,-0.0852
11.9333,-6.4375,-0.0860
11.9375,-6.4330,-0.0868
11.9417,-6.4280,-0.0876
11.9458,-6.4225,-0.0885
11.9500,-6.4165,-0.0895
11.9542,-6.4100,-0.0905
11.9583,-6.4030,-0.0915
11.9625,-6.3940,-0.0894
11.9667,-6.3913,-0.0896
11.9708,-6.3876,-0.0874
11.9750,-6.3876,-0.0869
11.9792,-6.3878,-0.0862
11.9833,-6.3891,-0.0855
11.9875,-6.3910,-0.0848
11.9917,-6.3935,-0.0842
11.9958,-6.3965,-0.0837
12.0000,-6.3998,-0.0831
12.0042,-6.4034,-0.0826
12.0083,-6.4073,-0.0822
12.0125,-6.4112,-0.0818
12.0167,-6.4152,-0.0814
12.0208,-6.4193,-0.0810
12.0250,-6.4233,-0.0807
12.0292,-6.4272,-0.0805
12.0333,-6.4310,-0.0803
12.0375,-6.4346,-0.0801
12.0417,-6.4380,-0.0800
12.0458,-6.4411,-0.0799
12.0500,-6.4440,-0.0799
12.0542,-6.4466,-0.0799
12.0583,-6.4489,-0.0799
12.0625,-6.4508,-0.0800
12.0667,-6.4524,-0.0801
12.0708,-6.4536,-0.0803
12.0750,-6.4545,-0.0806
12.0792,-6.4549,-0.0808
12.0833,-6.4549,-0.0811
12.0875,-6.4545,-0.0815
12.0917,-6.4536,-0.0819
12.0958,-6.4523,-0.0824
12.1000,-6.4506,-0.0829
12.1042,-6.4485,-0.0834
12.1083,-6.4460,-0.0840
12.1125,-6.4430,-0.0846
12.1167,-6.4395,-0.0853
12.1208,-6.4355,-0.0860
12.1250,-6.4311,-0.0868
12.1292,-6.4262,-0.0877
12.1333,-6.4209,-0.0886
12.1375,-6.4150,-0.0895
12.1417,-6.4087,-0.0905
12.1458,-6.4019,-0.0915
12.1500,-6.3930,-0.0894
12.1542,-6.3904,-0.0895
12.1583,-6.3869,-0.0874
12.1625,-6.3871,-0.0869
12.1667,-6.3875,-0.0861
12.1708,-6.3889,-0.0854
12.1750,-6.3909,-0.0847
12.1792,-6.3936,-0.0841
12.1833,-6.3967,-0.0835
12.1875,-6.4002,-0.0830
12.1917,-6.4040,-0.0825
12.1958,-6.4080,-0.0820
12.2000,-6.4121,-0.0816
12.2042,-6.4163,-0.0812
12.2083,-6.4204,-0.0808
12.2125,-6.4246,-0.0805
12.2167,-6.4287,-0.0802
12.2208,-6.4326,-0.0800
12.2250,-6.4364,-0.0798
12.2292,-6.4400,-0.0797
12.2333,-6.4433,-0.0796
12.2375,-6.4464,-0.0795
12.2417,-6.4491,-0.0795
12.2458,-6.4516,-0.0795
12.2500,-6.4537,-0.0796
12.2542,-6.4555,-0.0797
12.2583,-6.4569,-0.0799
12.2625,-6.4579,-0.0801
12.2667,-6.4585,-0.0804
12.2708,-6.4587,-0.0807
12.2750,-6.4585,-0.0810
12.2792,-6.4578,-0.0814
12.2833,-6.4567,-0.0818
12.2875,-6.4552,-0.0823
12.2917,-6.4533,-0.0828
12.2958,-6.4510,-0.0834
12.3000,-6.4481,-0.0840
12.3042,-6.4449,-0.0846
12.3083,-6.4411,-0.0854
12.3125,-6.4369,-0.0861
12.3167,-6.4323,-0.0869
12.3208,-6.4271,-0.0878
12.3250,-6.4215,-0.0887
12.3292,-6.4154,-0.0897
12.3333,-6.4088,-0.0907
12.3375,-6.4002,-0.0887
12.3417,-6.3976,-0.0887
12.3458,-6.3942,-0.0866
12.3500,-6.3944,-0.0861
12.3542,-6.3949,-0.0853
12.3583,-6.3968,-0.0845
12.3625,-6.3990,-0.0839
12.3667,-6.4018,-0.0832
12.3708,-6.4051,-0.0826
12.3750,-6.4088,-0.0820
12.3792,-6.4128,-0.0815
12.3833,-6.4170,-0.0810
12.3875,-6.4214,-0.0805
12.3917,-6.4259,-0.0801
12.3958,-6.4304,-0.0797
12.4000,-6.4348,-0.0794
12.4042,-6.4392,-0.0791
12.4083,-6.4435,-0.0788
12.4125,-6.4475,-0.0786
12.4167,-6.4514,-0.0784
12.4208,-6.4551,-0.0782
12.4250,-6.4585,-0.0781
12.4292,-6.4617,-0.0781
12.4333,-6.4645,-0.0781
12.4375,-6.4670,-0.0781
12.4417,-6.4692,-0.0782
12.4458,-6.4710,-0.0783
12.4500,-6.4724,-0.0785
12.4542,-6.4735,-0.0787
12.4583,-6.4741,-0.0789
12.4625,-6.4744,-0.0792
12.4667,-6.4742,-0.0796
12.4708,-6.4736,-0.0799
12.4750,-6.4726,-0.0803
12.4792,-6.4711,-0.0808
12.4833,-6.4693,-0.0813
12.4875,-6.4672,-0.0818
12.4917,-6.4645,-0.0825
12.4958,-6.4612,-0.0831
12.5000,-6.4575,-0.0838
12.5042,-6.4533,-0.0846
12.5083,-6.4487,-0.0854
12.5125,-6.4436,-0.0862
12.5167,-6.4380,-0.0871
12.5208,-6.4319,-0.0881
12.5250,-6.4253,-0.0891
12.5292,-6.4183,-0.0902
12.5333,-6.4093,-0.0881
12.5375,-6.4064,-0.0882
12.5417,-6.4026,-0.0861
12.5458,-6.4025,-0.0856
12.5500,-6.4027,-0.0848
12.5542,-6.4039,-0.0841
12.5583,-6.4058,-0.0835
12.5625,-6.4083,-0.0829
12.5667,-6.4113,-0.0823
12.5708,-6.4147,-0.0817
12.5750,-6.4184,-0.0812
12.5792,-6.4222,-0.0808
12.5833,-6.4263,-0.0803
12.5875,-6.4304,-0.0799
12.5917,-6.4345,-0.0796
12.5958,-6.4387,-0.0793
12.6000,-6.4427,-0.0790
12.6042,-6.4466,-0.0788
12.6083,-6.4504,-0.0786
12.6125,-6.4539,-0.0784
12.6167,-6.4572,-0.0783
12.6208,-6.4603,-0.0783
12.6250,-6.4631,-0.0783
12.6292,-6.4655,-0.0783
12.6333,-6.4677,-0.0783
12.6375,-6.4695,-0.0785
12.6417,-6.4709,-0.0786
12.6458,-6.4719,-0.0788
12.6500,-6.4726,-0.0791
12.6542,-6.4728,-0.0794
12.6583,-6.4726,-0.0797
12.6625,-6.4720,-0.0800
12.6667,-6.4710,-0.0804
12.6708,-6.4697,-0.0809
12.6750,-6.4678,-0.0814
12.6792,-6.4656,-0.0820
12.6833,-6.4629,-0.0826
12.6875,-6.4597,-0.0832
12.6917,-6.4561,-0.0839
12.6958,-6.4520,-0.0846
12.7000,-6.4475,-0.0854
12.7042,-6.4424,-0.0863
12.7083,-6.4370,-0.0872
12.7125,-6.4310,-0.0881
12.7167,-6.4245,-0.0891
12.7208,-6.4176,-0.0902
12.7250,-6.4086,-0.0881
12.7292,-6.4059,-0.0882
12.7333,-6.4022,-0.0861
12.7375,-6.4022,-0.0855
12.7417,-6.4025,-0.0848
12.7458,-6.4039,-0.0841
12.7500,-6.4059,-0.0834
12.7542,-6.4085,-0.0828
12.7583,-6.4116,-0.0822
12.7625,-6.4150,-0.0816
12.7667,-6.4188,-0.0811
12.7708,-6.4228,-0.0806
12.7750,-6.4269,-0.0802
12.7792,-6.4311,-0.0798
12.7833,-6.4354,-0.0794
12.7875,-6.4396,-0.0791
12.7917,-6.4437,-0.0788
12.7958,-6.4477,-0.0786
12.8000,-6.4516,-0.0784
12.8042,-6.4554,-0.0782
12.8083,-6.4588,-0.0781
12.8125,-6.4620,-0.0781
12.8167,-6.4648,-0.0780
12.8208,-6.4674,-0.0780
12.8250,-6.4696,-0.0781
12.8292,-6.4715,-0.0782
12.8333,-6.4730,-0.0783
12.8375,-6.4742,-0.0785
12.8417,-6.4749,-0.0788
12.8458,-6.4753,-0.0791
12.8500,-6.4752,-0.0794
12.8542,-6.4747,-0.0797
12.8583,-6.4739,-0.0801
12.8625,-6.4726,-0.0806
12.8667,-6.4709,-0.0810
12.8708,-6.4687,-0.0816
12.8750,-6.4662,-0.0822
12.8792,-6.4631,-0.0828
12.8833,-6.4596,-0.0835
12.8875,-6.4557,-0.0842
12.8917,-6.4512,-0.0850
12.8958,-6.4464,-0.0858
12.9000,-6.4410,-0.0867
12.9042,-6.4351,-0.0876
12.9083,-6.4288,-0.0886
12.9125,-6.4220,-0.0896
12.9167,-6.4132,-0.0877
12.9208,-6.4104,-0.0877
12.9250,-6.4068,-0.0856
12.9292,-6.4068,-0.0851
12.9333,-6.4071,-0.0843
12.9375,-6.4085,-0.0836
12.9417,-6.4106,-0.0829
12.9458,-6.4132,-0.0823
12.9500,-6.4164,-0.0816
12.9542,-6.4200,-0.0811
12.9583,-6.4239,-0.0805
12.9625,-6.4281,-0.0800
12.9667,-6.4327,-0.0796
12.9708,-6.4370,-0.0792
12.9750,-6.4414,-0.0788
12.9792,-6.4458,-0.0784
12.9833,-6.4501,-0.0782
12.9875,-6.4542,-0.0779
12.9917,-6.4582,-0.0777
12.9958,-6.4621,-0.0775
13.0000,-6.4657,-0.0774
13.0042,-6.4690,-0.0773
13.0083,-6.4721,-0.0772
13.0125,-6.4748,-0.0772
13.0167,-6.4773,-0.0772
13.0208,-6.4794,-0.0773
13.0250,-6.4811,-0.0774
13.0292,-6.4825,-0.0776
13.0333,-6.4835,-0.0778
13.0375,-6.4841,-0.0780
13.0417,-6.4843,-0.0783
13.0458,-6.4842,-0.0786
13.0500,-6.4836,-0.0790
13.0542,-6.4826,-0.0794
13.0583,-6.4812,-0.0799
13.0625,-6.4794,-0.0804
13.0667,-6.4771,-0.0809
13.0708,-6.4743,-0.0815
13.0750,-6.4711,-0.0822
13.0792,-6.4675,-0.0829
13.0833,-6.4634,-0.0836
13.0875,-6.4588,-0.0844
13.0917,-6.4537,-0.0853
13.0958,-6.4482,-0.0861
13.1000,-6.4422,-0.0871
13.1042,-6.4357,-0.0881
13.1083,-6.4287,-0.0891
13.1125,-6.4198,-0.0872
13.1167,-6.4168,-0.0873
13.1208,-6.4130,-0.0852
13.1250,-6.4129,-0.0846
13.1292,-6.4131,-0.0839
13.1333,-6.4143,-0.0832
13.1375,-6.4162,-0.0825
13.1417,-6.4188,-0.0819
13.1458,-6.4218,-0.0813
13.1500,-6.4253,-0.0807
13.1542,-6.4291,-0.0802
13.1583,-6.4331,-0.0797
13.1625,-6.4372,-0.0792
13.1667,-6.4415,-0.0788
13.1708,-6.4458,-0.0785
13.1750,-6.4501,-0.0781
13.1792,-6.4543,-0.0778
13.1833,-6.4584,-0.0776
13.1875,-6.4623,-0.0774
13.1917,-6.4660,-0.0772
13.1958,-6.4695,-0.0771
13.2000,-6.4728,-0.0770
13.2042,-6.4757,-0.0770
13.2083,-6.4784,-0.0770
13.2125,-6.4807,-0.0770
13.2167,-6.4827,-0.0771
13.2208,-6.4844,-0.0772
13.2250,-6.4856,-0.0774
13.2292,-6.4866,-0.0776
13.2333,-6.4871,-0.0778
13.2375,-6.4873,-0.0781
13.2417,-6.4873,-0.0784
13.2458,-6.4866,-0.0788
13.2500,-6.4855,-0.0792
13.2542,-6.4840,-0.0797
13.2583,-6.4821,-0.0802
13.2625,-6.4797,-0.0808
13.2667,-6.4769,-0.0814
13.2708,-6.4736,-0.0820
13.2750,-6.4698,-0.0827
13.2792,-6.4656,-0.0835
13.2833,-6.4609,-0.0843
13.2875,-6.4558,-0.0851
13.2917,-6.4502,-0.0860
13.2958,-6.4441,-0.0870
13.3000,-6.4375,-0.0880
13.3042,-6.4304,-0.0891
13.3083,-6.4214,-0.0870
13.3125,-6.4184,-0.0871
13.3167,-6.4146,-0.0850
13.3208,-6.4145,-0.0845
13.3250,-6.4147,-0.0837
13.3292,-6.4159,-0.0831
13.3333,-6.4178,-0.0824
13.3375,-6.4204,-0.0818
13.3417,-6.4234,-0.0812
13.3458,-6.4268,-0.0806
13.3500,-6.4305,-0.0801
13.3542,-6.4344,-0.0796
13.3583,-6.4385,-0.0792
13.3625,-6.4427,-0.0788
13.3667,-6.4469,-0.0784
13.3708,-6.4511,-0.0781
13.3750,-6.4552,-0.0778
13.3792,-6.4592,-0.0776
13.3833,-6.4630,-0.0774
13.3875,-6.4667,-0.0772
13.3917,-6.4701,-0.0771
13.3958,-6.4733,-0.0770
13.4000,-6.4762,-0.0770
13.4042,-6.4788,-0.0770
13.4083,-6.4811,-0.0770
13.4125,-6.4831,-0.0771
13.4167,-6.4846,-0.0772
13.4208,-6.4859,-0.0774
13.4250,-6.4868,-0.0776
13.4292,-6.4872,-0.0779
13.4333,-6.4873,-0.0782
13.4375,-6.4442,-0.0242
13.4417,-6.4533,-0.0371
13.4458,-6.4856,-0.0376
13.4500,-6.5442,-0.0399
13.4542,-6.6046,-0.0411
13.4583,-6.6567,-0.0415
13.4625,-6.7007,-0.0420
13.4667,-6.7383,-0.0428
13.4708,-6.7707,-0.0437
13.4750,-6.7112,0.0960
13.4792,-6.7235,0.0607
13.4833,-6.7368,0.1480
13.4875,-6.7220,0.3526
13.4917,-5.9791,0.8329
13.4958,-4.5219,1.3622
13.5000,-2.5162,1.8874
13.5042,0.4508,2.3491
13.5083,3.8602,2.8014
13.5125,7.6400,3.1817
13.5167,11.4227,3.3470
13.5208,15.1568,3.3057
13.5250,19.0928,2.8283
13.5292,21.9045,1.9486
13.5333,22.0034,0.4037
13.5375,18.7014,-1.8022
13.5417,11.6757,-4.4515
13.5458,2.2070,-6.8899
13.5500,-9.0349,-8.7378
13.5542,-18.7329,-9.5645
13.5583,-26.4408,-9.9570
13.5625,-32.7342,-10.1690
13.5667,-38.3815,-9.9958
13.5708,-44.0477,-9.5763
