Time (s),Pitch (deg),Velocity (m/s)
0.0000,-0.1542,-0.0130
0.0042,-0.3312,-0.0039
0.0083,-0.5018,-0.0007
0.0125,-0.6706,0.0023
0.0167,-0.8366,0.0054
0.0208,-0.9999,0.0085
0.0250,-1.1605,0.0116
0.0292,-1.3185,0.0148
0.0333,-1.4739,0.0180
0.0375,-1.6266,0.0213
0.0417,-1.7775,0.0237
0.0458,-1.9268,0.0250
0.0500,-2.0740,0.0263
0.0542,-2.2191,0.0277
0.0583,-2.3621,0.0291
0.0625,-2.5029,0.0306
0.0667,-2.6417,0.0321
0.0708,-2.7783,0.0337
0.0750,-2.9128,0.0353
0.0792,-3.0451,0.0369
0.0833,-3.1752,0.0386
0.0875,-3.3032,0.0403
0.0917,-3.4289,0.0421
0.0958,-3.5525,0.0439
0.1000,-3.6739,0.0458
0.1042,-3.7930,0.0477
0.1083,-3.9100,0.0497
0.1125,-4.0247,0.0517
0.1167,-4.1373,0.0538
0.1208,-4.2477,0.0559
0.1250,-4.3575,0.0558
0.1292,-4.4650,0.0559
0.1333,-4.5704,0.0561
0.1375,-4.6738,0.0563
0.1417,-4.7749,0.0566
0.1458,-4.8739,0.0570
0.1500,-4.9707,0.0573
0.1542,-5.0652,0.0578
0.1583,-5.1573,0.0583
0.1625,-5.2472,0.0588
0.1667,-5.3347,0.0594
0.1708,-5.4199,0.0600
0.1750,-5.5028,0.0607
0.1792,-5.5833,0.0614
0.1833,-5.6615,0.0622
0.1875,-5.7374,0.0631
0.1917,-5.8111,0.0639
0.1958,-5.8826,0.0648
0.2000,-5.9518,0.0658
0.2042,-6.0190,0.0668
0.2083,-6.0841,0.0679
0.2125,-6.1473,0.0690
0.2167,-6.2085,0.0701
0.2208,-6.2679,0.0713
0.2250,-6.3277,0.0696
0.2292,-6.3829,0.0689
0.2333,-6.4355,0.0682
0.2375,-6.4851,0.0675
0.2417,-6.5320,0.0669
0.2458,-6.5760,0.0663
0.2500,-6.6173,0.0658
0.2542,-6.6560,0.0653
0.2583,-6.6921,0.0648
0.2625,-6.7257,0.0643
0.2667,-6.7570,0.0639
0.2708,-6.7860,0.0636
0.2750,-6.8130,0.0632
0.2792,-6.8379,0.0629
0.2833,-6.8610,0.0626
0.2875,-6.8823,0.0624
0.2917,-6.9021,0.0622
0.2958,-6.9203,0.0620
0.3000,-6.9371,0.0618
0.3042,-6.9526,0.0617
0.3083,-6.9670,0.0616
0.3125,-6.9803,0.0615
0.3167,-6.9927,0.0615
0.3208,-7.0042,0.0615
0.3250,-7.0149,0.0615
0.3292,-7.0250,0.0616
0.3333,-7.0344,0.0617
0.3375,-7.0433,0.0618
0.3417,-7.0518,0.0619
0.3458,-7.0599,0.0621
0.3500,-7.0677,0.0623
0.3542,-7.0752,0.0626
0.3583,-7.0825,0.0629
0.3625,-7.0897,0.0632
0.3667,-7.0968,0.0635
0.3708,-7.1039,0.0639
0.3750,-7.1110,0.0643
0.3792,-7.1181,0.0648
0.3833,-7.1254,0.0653
0.3875,-7.1327,0.0658
0.3917,-7.1403,0.0663
0.3958,-7.1480,0.0669
0.4000,-7.1559,0.0676
0.4042,-7.1641,0.0682
0.4083,-7.1746,0.0660
0.4125,-7.1809,0.0650
0.4167,-7.1855,0.0637
0.4208,-7.1880,0.0625
0.4250,-7.1888,0.0614
0.4292,-7.1879,0.0602
0.4333,-7.1855,0.0591
0.4375,-7.1817,0.0580
0.4417,-7.1766,0.0569
0.4458,-7.1703,0.0559
0.4500,-7.1630,0.0549
0.4542,-7.1546,0.0539
0.4583,-7.1454,0.0529
0.4625,-7.1353,0.0519
0.4667,-7.1246,0.0510
0.4708,-7.1132,0.0501
0.4750,-7.1012,0.0492
0.4792,-7.0888,0.0483
0.4833,-7.0759,0.0475
0.4875,-7.0626,0.0466
0.4917,-7.0490,0.0458
0.4958,-7.0351,0.0450
0.5000,-7.0210,0.0443
0.5042,-7.0068,0.0435
0.5083,-6.9924,0.0428
0.5125,-6.9779,0.0421
0.5167,-6.9633,0.0414
0.5208,-6.9487,0.0407
0.5250,-6.9341,0.0400
0.5292,-6.9195,0.0394
0.5333,-6.9049,0.0388
0.5375,-6.8905,0.0382
0.5417,-6.8761,0.0376
0.5458,-6.8618,0.0370
0.5500,-6.8477,0.0365
0.5542,-6.8338,0.0360
0.5583,-6.8200,0.0355
0.5625,-6.8063,0.0350
0.5667,-6.7929,0.0345
0.5708,-6.7797,0.0340
0.5750,-6.7667,0.0336
0.5792,-6.7539,0.0332
0.5833,-6.7414,0.0327
0.5875,-6.7291,0.0323
0.5917,-6.7170,0.0320
0.5958,-6.7052,0.0316
0.6000,-6.6937,0.0312
0.6042,-6.6824,0.0309
0.6083,-6.6714,0.0306
0.6125,-6.6607,0.0303
0.6167,-6.6503,0.0300
0.6208,-6.6402,0.0297
0.6250,-6.6303,0.0295
0.6292,-6.6208,0.0292
0.6333,-6.6115,0.0290
0.6375,-6.6025,0.0288
0.6417,-6.5939,0.0286
0.6458,-6.5855,0.0284
0.6500,-6.5775,0.0283
0.6542,-6.5697,0.0281
0.6583,-6.5622,0.0280
0.6625,-6.5551,0.0278
0.6667,-6.5483,0.0277
0.6708,-6.5417,0.0276
0.6750,-6.5355,0.0276
0.6792,-6.5296,0.0275
0.6833,-6.5240,0.0274
0.6875,-6.5187,0.0274
0.6917,-6.5137,0.0274
0.6958,-6.5091,0.0274
0.7000,-6.5047,0.0274
0.7042,-6.5007,0.0274
0.7083,-6.4969,0.0275
0.7125,-6.4935,0.0275
0.7167,-6.4904,0.0276
0.7208,-6.4876,0.0277
0.7250,-6.4851,0.0278
0.7292,-6.4830,0.0279
0.7333,-6.4812,0.0280
0.7375,-6.4796,0.0282
0.7417,-6.4785,0.0283
0.7458,-6.4776,0.0285
0.7500,-6.4770,0.0287
0.7542,-6.4768,0.0289
0.7583,-6.4769,0.0292
0.7625,-6.4773,0.0294
0.7667,-6.4781,0.0297
0.7708,-6.4792,0.0299
0.7750,-6.4806,0.0302
0.7792,-6.4823,0.0306
0.7833,-6.4844,0.0309
0.7875,-6.4868,0.0312
0.7917,-6.4896,0.0316
0.7958,-6.4927,0.0320
0.8000,-6.4961,0.0324
0.8042,-6.4999,0.0328
0.8083,-6.5041,0.0333
0.8125,-6.5086,0.0337
0.8167,-6.5134,0.0342
0.8208,-6.5186,0.0347
0.8250,-6.5242,0.0352
0.8292,-6.5301,0.0358
0.8333,-6.5364,0.0363
0.8375,-6.5431,0.0369
0.8417,-6.5501,0.0375
0.8458,-6.5576,0.0382
0.8500,-6.5654,0.0388
0.8542,-6.5736,0.0395
0.8583,-6.5821,0.0402
0.8625,-6.5911,0.0409
0.8667,-6.6005,0.0417
0.8708,-6.6102,0.0424
0.8750,-6.6204,0.0432
0.8792,-6.6310,0.0441
0.8833,-6.6420,0.0449
0.8875,-6.6534,0.0458
0.8917,-6.6670,0.0440
0.8958,-6.6769,0.0431
0.9000,-6.6847,0.0420
0.9042,-6.6906,0.0410
0.9083,-6.6945,0.0400
0.9125,-6.6967,0.0390
0.9167,-6.6973,0.0380
0.9208,-6.6964,0.0371
0.9250,-6.6941,0.0361
0.9292,-6.6905,0.0352
0.9333,-6.6858,0.0343
0.9375,-6.6800,0.0333
0.9417,-6.6732,0.0324
0.9458,-6.6655,0.0315
0.9500,-6.6570,0.0306
0.9542,-6.6477,0.0298
0.9583,-6.6378,0.0289
0.9625,-6.6272,0.0280
0.9667,-6.6161,0.0272
0.9708,-6.6045,0.0264
0.9750,-6.5924,0.0255
0.9792,-6.5799,0.0247
0.9833,-6.5671,0.0239
0.9875,-6.5539,0.0231
0.9917,-6.5404,0.0223
0.9958,-6.5267,0.0216
1.0000,-6.5128,0.0208
1.0042,-6.4986,0.0200
1.0083,-6.4843,0.0193
1.0125,-6.4698,0.0185
1.0167,-6.4551,0.0178
1.0208,-6.4404,0.0170
1.0250,-6.4256,0.0163
1.0292,-6.4107,0.0156
1.0333,-6.3957,0.0148
1.0375,-6.3807,0.0141
1.0417,-6.3656,0.0134
1.0458,-6.3505,0.0127
1.0500,-6.3354,0.0120
1.0542,-6.3203,0.0113
1.0583,-6.3051,0.0106
1.0625,-6.2900,0.0099
1.0667,-6.2749,0.0092
1.0708,-6.2598,0.0085
1.0750,-6.2446,0.0078
1.0792,-6.2295,0.0072
1.0833,-6.2145,0.0065
1.0875,-6.1994,0.0058
1.0917,-6.1843,0.0051
1.0958,-6.1693,0.0044
1.1000,-6.1543,0.0037
1.1042,-6.1393,0.0031
1.1083,-6.1243,0.0024
1.1125,-6.1094,0.0017
1.1167,-6.0944,0.0010
1.1208,-6.0795,0.0003
1.1250,-6.0645,-0.0004
1.1292,-6.0496,-0.0011
1.1333,-6.0347,-0.0018
1.1375,-6.0197,-0.0025
1.1417,-6.0048,-0.0032
1.1458,-5.9898,-0.0039
1.1500,-5.9748,-0.0046
1.1542,-5.9598,-0.0053
1.1583,-5.9448,-0.0060
1.1625,-5.9297,-0.0067
1.1667,-5.9146,-0.0075
1.1708,-5.8995,-0.0082
1.1750,-5.8843,-0.0090
1.1792,-5.8690,-0.0097
1.1833,-5.8537,-0.0105
1.1875,-5.8383,-0.0112
1.1917,-5.8229,-0.0120
1.1958,-5.8074,-0.0128
1.2000,-5.7917,-0.0136
1.2042,-5.7760,-0.0144
1.2083,-5.7586,-0.0128
1.2125,-5.7449,-0.0116
1.2167,-5.7341,-0.0105
1.2208,-5.7257,-0.0093
1.2250,-5.7197,-0.0081
1.2292,-5.7159,-0.0070
1.2333,-5.7142,-0.0058
1.2375,-5.7145,-0.0046
1.2417,-5.7166,-0.0035
1.2458,-5.7204,-0.0023
1.2500,-5.7258,-0.0011
1.2542,-5.7327,0.0001
1.2583,-5.7410,0.0013
1.2625,-5.7506,0.0026
1.2667,-5.7615,0.0038
1.2708,-5.7734,0.0050
1.2750,-5.7865,0.0063
1.2792,-5.8006,0.0075
1.2833,-5.8171,0.0064
1.2875,-5.8306,0.0057
1.2917,-5.8421,0.0051
1.2958,-5.8517,0.0044
1.3000,-5.8595,0.0037
1.3042,-5.8656,0.0030
1.3083,-5.8701,0.0023
1.3125,-5.8732,0.0015
1.3167,-5.8750,0.0008
1.3208,-5.8755,0.0001
1.3250,-5.8748,-0.0006
1.3292,-5.8730,-0.0014
1.3333,-5.8702,-0.0021
1.3375,-5.8664,-0.0029
1.3417,-5.8617,-0.0036
1.3458,-5.8562,-0.0044
1.3500,-5.8499,-0.0052
1.3542,-5.8429,-0.0059
1.3583,-5.8351,-0.0067
1.3625,-5.8267,-0.0075
1.3667,-5.8172,-0.0077
1.3708,-5.8070,-0.0062
1.3750,-5.8000,-0.0051
1.3792,-5.7952,-0.0039
1.3833,-5.7925,-0.0028
1.3875,-5.7919,-0.0016
1.3917,-5.7931,-0.0004
1.3958,-5.7961,0.0008
1.4000,-5.8008,0.0020
1.4042,-5.8070,0.0032
1.4083,-5.8147,0.0044
1.4125,-5.8253,0.0033
1.4167,-5.8334,0.0026
1.4208,-5.8398,0.0019
1.4250,-5.8445,0.0011
1.4292,-5.8477,0.0004
1.4333,-5.8495,-0.0004
1.4375,-5.8500,-0.0011
1.4417,-5.8493,-0.0019
1.4458,-5.8475,-0.0026
1.4500,-5.8445,-0.0034
1.4542,-5.8406,-0.0042
1.4583,-5.8355,-0.0049
1.4625,-5.8282,-0.0034
1.4667,-5.8240,-0.0023
1.4708,-5.8219,-0.0011
1.4750,-5.8217,0.0001
1.4792,-5.8235,0.0013
1.4833,-5.8269,0.0025
1.4875,-5.8325,0.0028
1.4917,-5.8393,0.0018
1.4958,-5.8440,0.0011
1.5000,-5.8472,0.0004
1.5042,-5.8490,-0.0004
1.5083,-5.8495,-0.0012
1.5125,-5.8488,-0.0019
1.5167,-5.8469,-0.0027
1.5208,-5.8439,-0.0035
1.5250,-5.8385,-0.0023
1.5292,-5.8353,-0.0011
1.5333,-5.8343,0.0001
1.5375,-5.8352,0.0013
1.5417,-5.8383,0.0016
1.5458,-5.8428,0.0007
1.5500,-5.8454,-0.0001
1.5542,-5.8467,-0.0008
1.5583,-5.8466,-0.0016
1.5625,-5.8452,-0.0024
1.5667,-5.8414,-0.0011
1.5708,-5.8398,0.0000
1.5750,-5.8403,0.0010
1.5792,-5.8431,0.0006
1.5833,-5.8453,-0.0003
1.5875,-5.8459,-0.0009
1.5917,-5.8453,-0.0009
1.5958,-5.8444,-0.0005
1.6000,-5.8444,-0.0002
1.6042,-5.8449,-0.0001
1.6083,-5.8454,-0.0000
1.6125,-5.8461,-0.0002
1.6167,-5.8466,-0.0003
1.6208,-5.8468,-0.0003
1.6250,-5.8468,-0.0003
1.6292,-5.8469,-0.0002
1.6333,-5.8472,-0.0002
1.6375,-5.8475,-0.0002
1.6417,-5.8479,-0.0002
1.6458,-5.8481,-0.0002
1.6500,-5.8483,-0.0002
1.6542,-5.8485,-0.0002
1.6583,-5.8487,-0.0002
1.6625,-5.8489,-0.0002
1.6667,-5.8491,-0.0002
1.6708,-5.8493,-0.0002
1.6750,-5.8495,-0.0002
1.6792,-5.8497,-0.0001
1.6833,-5.8499,-0.0001
1.6875,-5.8500,-0.0001
1.6917,-5.8502,-0.0001
1.6958,-5.8504,-0.0001
1.7000,-5.8506,-0.0001
1.7042,-5.8507,-0.0001
1.7083,-5.8509,-0.0001
1.7125,-5.8510,-0.0001
1.7167,-5.8512,-0.0001
1.7208,-5.8513,-0.0001
1.7250,-5.8515,-0.0001
1.7292,-5.8516,-0.0001
1.7333,-5.8517,-0.0001
1.7375,-5.8519,-0.0001
1.7417,-5.8520,-0.0001
1.7458,-5.8521,-0.0001
1.7500,-5.8522,-0.0001
1.7542,-5.8524,-0.0001
1.7583,-5.8525,-0.0001
1.7625,-5.8526,-0.0001
1.7667,-5.8527,-0.0001
1.7708,-5.8528,-0.0000
1.7750,-5.8529,-0.0000
1.7792,-5.8530,-0.0000
1.7833,-5.8531,-0.0000
1.7875,-5.8532,-0.0000
1.7917,-5.8533,-0.0000
1.7958,-5.8534,-0.0000
1.8000,-5.8535,-0.0000
1.8042,-5.8536,-0.0000
1.8083,-5.8536,-0.0000
1.8125,-5.8537,-0.0000
1.8167,-5.8538,-0.0000
1.8208,-5.8539,-0.0000
1.8250,-5.8540,-0.0000
1.8292,-5.8540,-0.0000
1.8333,-5.8541,-0.0000
1.8375,-5.8542,-0.0000
1.8417,-5.8542,-0.0000
1.8458,-5.8543,-0.0000
1.8500,-5.8544,0.0000
1.8542,-5.8544,0.0000
1.8583,-5.8545,0.0000
1.8625,-5.8546,0.0000
1.8667,-5.8546,0.0000
1.8708,-5.8547,0.0000
1.8750,-5.8547,0.0000
1.8792,-5.8548,0.0000
1.8833,-5.8548,0.0000
1.8875,-5.8549,0.0000
1.8917,-5.8549,0.0000
1.8958,-5.8550,0.0000
1.9000,-5.8550,0.0000
1.9042,-5.8551,0.0000
1.9083,-5.8551,0.0000
1.9125,-5.8552,0.0000
1.9167,-5.8552,0.0000
1.9208,-5.8553,0.0000
1.9250,-5.8553,0.0000
1.9292,-5.8553,0.0000
1.9333,-5.8554,0.0000
1.9375,-5.8554,0.0000
1.9417,-5.8555,0.0000
1.9458,-5.8555,0.0000
1.9500,-5.8555,0.0000
1.9542,-5.8556,0.0000
1.9583,-5.8556,0.0000
1.9625,-5.8556,0.0000
1.9667,-5.8557,0.0000
1.9708,-5.8557,0.0000
1.9750,-5.8557,0.0000
1.9792,-5.8558,0.0000
1.9833,-5.8558,0.0000
1.9875,-5.8558,0.0000
1.9917,-5.8558,0.0000
1.9958,-5.8559,0.0000
2.0000,-5.8559,0.0000
2.0042,-5.8559,0.0000
2.0083,-5.8559,0.0000
2.0125,-5.8560,0.0000
2.0167,-5.8560,0.0000
2.0208,-5.8560,0.0001
2.0250,-5.8560,0.0001
2.0292,-5.8561,0.0001
2.0333,-5.8561,0.0001
2.0375,-5.8561,0.0001
2.0417,-5.8561,0.0001
2.0458,-5.8561,0.0001
2.0500,-5.8562,0.0001
2.0542,-5.8562,0.0001
2.0583,-5.8562,0.0001
2.0625,-5.8562,0.0001
2.0667,-5.8562,0.0001
2.0708,-5.8562,0.0001
2.0750,-5.8563,0.0001
2.0792,-5.8563,0.0001
2.0833,-5.8563,0.0001
2.0875,-5.8563,0.0001
2.0917,-5.8563,0.0001
2.0958,-5.8563,0.0001
2.1000,-5.8564,0.0001
2.1042,-5.8564,0.0001
2.1083,-5.8564,0.0001
2.1125,-5.8564,0.0001
2.1167,-5.8564,0.0001
2.1208,-5.8564,0.0001
2.1250,-5.8564,0.0001
2.1292,-5.8564,0.0001
2.1333,-5.8565,0.0001
2.1375,-5.8565,0.0001
2.1417,-5.8565,0.0001
2.1458,-5.8565,0.0001
2.1500,-5.8565,0.0001
2.1542,-5.8565,0.0001
2.1583,-5.8565,0.0001
2.1625,-5.8565,0.0001
2.1667,-5.8565,0.0001
2.1708,-5.8565,0.0001
2.1750,-5.8566,0.0001
2.1792,-5.8566,0.0001
2.1833,-5.8566,0.0001
2.1875,-5.8566,0.0001
2.1917,-5.8566,0.0001
2.1958,-5.8566,0.0001
2.2000,-5.8566,0.0001
2.2042,-5.8566,0.0001
2.2083,-5.8566,0.0001
2.2125,-5.8566,0.0001
2.2167,-5.8566,0.0001
2.2208,-5.8566,0.0001
2.2250,-5.8566,0.0001
2.2292,-5.8567,0.0001
2.2333,-5.8567,0.0001
2.2375,-5.8567,0.0001
2.2417,-5.8567,0.0001
2.2458,-5.8567,0.0001
2.2500,-5.8567,0.0001
2.2542,-5.8567,0.0001
2.2583,-5.8567,0.0001
2.2625,-5.8567,0.0001
2.2667,-5.8567,0.0001
2.2708,-5.8567,0.0001
2.2750,-5.8567,0.0001
2.2792,-5.8567,0.0001
2.2833,-5.8567,0.0001
2.2875,-5.8567,0.0001
2.2917,-5.8567,0.0001
2.2958,-5.8567,0.0001
2.3000,-5.8567,0.0001
2.3042,-5.8567,0.0001
2.3083,-5.8568,0.0001
2.3125,-5.8568,0.0001
2.3167,-5.8568,0.0001
2.3208,-5.8568,0.0001
2.3250,-5.8568,0.0001
2.3292,-5.8568,0.0001
2.3333,-5.8568,0.0001
2.3375,-5.8568,0.0001
2.3417,-5.8568,0.0001
2.3458,-5.8568,0.0001
2.3500,-5.8568,0.0001
2.3542,-5.8568,0.0001
2.3583,-5.8568,0.0001
2.3625,-5.8568,0.0001
2.3667,-5.8568,0.0001
2.3708,-5.8568,0.0001
2.3750,-5.8568,0.0001
2.3792,-5.8568,0.0001
2.3833,-5.8568,0.0001
2.3875,-5.8568,0.0001
2.3917,-5.8568,0.0001
2.3958,-5.8568,0.0001
2.4000,-5.8568,0.0001
2.4042,-5.8568,0.0001
2.4083,-5.8568,0.0001
2.4125,-5.8568,0.0001
2.4167,-5.8568,0.0001
2.4208,-5.8568,0.0001
2.4250,-5.8568,0.0001
2.4292,-5.8568,0.0001
2.4333,-5.8568,0.0001
2.4375,-5.8568,0.0001
2.4417,-5.8568,0.0001
2.4458,-5.8568,0.0001
2.4500,-5.8568,0.0001
2.4542,-5.8568,0.0001
2.4583,-5.8568,0.0001
2.4625,-5.8568,0.0001
2.4667,-5.8568,0.0001
2.4708,-5.8569,0.0001
2.4750,-5.8569,0.0001
2.4792,-5.8569,0.0001
2.4833,-5.8569,0.0001
2.4875,-5.8569,0.0001
2.4917,-5.8569,0.0001
2.4958,-5.8569,0.0001
2.5000,-5.8569,0.0001
2.5042,-5.8569,0.0001
2.5083,-5.8569,0.0001
2.5125,-5.8569,0.0001
2.5167,-5.8569,0.0001
2.5208,-5.8569,0.0001
2.5250,-5.8569,0.0001
2.5292,-5.8569,0.0000
2.5333,-5.8569,0.0000
2.5375,-5.8568,0.0000
2.5417,-5.8567,0.0001
2.5458,-5.8567,0.0001
2.5500,-5.8568,0.0001
2.5542,-5.8568,0.0001
2.5583,-5.8569,0.0000
2.5625,-5.8568,0.0000
2.5667,-5.8568,0.0001
2.5708,-5.8568,0.0001
2.5750,-5.8568,0.0001
2.5792,-5.8568,0.0001
2.5833,-5.8568,0.0001
2.5875,-5.8569,0.0001
2.5917,-5.8568,0.0001
2.5958,-5.8568,0.0001
2.6000,-5.8568,0.0001
2.6042,-5.8569,0.0001
2.6083,-5.8569,0.0001
2.6125,-5.8569,0.0001
2.6167,-5.8569,0.0001
2.6208,-5.8569,0.0001
2.6250,-5.8569,0.0001
2.6292,-5.8569,0.0001
2.6333,-5.8569,0.0001
2.6375,-5.8569,0.0001
2.6417,-5.8569,0.0001
2.6458,-5.8569,0.0001
2.6500,-5.8569,0.0001
2.6542,-5.8569,0.0001
2.6583,-5.8569,0.0001
2.6625,-5.8569,0.0001
2.6667,-5.8569,0.0001
2.6708,-5.8569,0.0001
2.6750,-5.8569,0.0001
2.6792,-5.8569,0.0001
2.6833,-5.8569,0.0001
2.6875,-5.8569,0.0001
2.6917,-5.8569,0.0001
2.6958,-5.8569,0.0001
2.7000,-5.8569,0.0001
2.7042,-5.8569,0.0001
2.7083,-5.8569,0.0001
2.7125,-5.8569,0.0001
2.7167,-5.8569,0.0001
2.7208,-5.8569,0.0001
2.7250,-5.8569,0.0001
2.7292,-5.8569,0.0001
2.7333,-5.8569,0.0001
2.7375,-5.8569,0.0001
2.7417,-5.8569,0.0001
2.7458,-5.8569,0.0001
2.7500,-5.8569,0.0001
2.7542,-5.8569,0.0001
2.7583,-5.8569,0.0001
2.7625,-5.8569,0.0001
2.7667,-5.8569,0.0001
2.7708,-5.8569,0.0001
2.7750,-5.8569,0.0001
2.7792,-5.8569,0.0001
2.7833,-5.8569,0.0001
2.7875,-5.8569,0.0001
2.7917,-5.8569,0.0001
2.7958,-5.8569,0.0001
2.8000,-5.8569,0.0001
2.8042,-5.8569,0.0001
2.8083,-5.8569,0.0001
2.8125,-5.8569,0.0001
2.8167,-5.8569,0.0001
2.8208,-5.8569,0.0001
2.8250,-5.8569,0.0001
2.8292,-5.8569,0.0001
2.8333,-5.8569,0.0001
2.8375,-5.8569,0.0001
2.8417,-5.8569,0.0001
2.8458,-5.8569,0.0001
2.8500,-5.8569,0.0001
2.8542,-5.8569,0.0001
2.8583,-5.8569,0.0001
2.8625,-5.8569,0.0001
2.8667,-5.8569,0.0001
2.8708,-5.8569,0.0001
2.8750,-5.8569,0.0001
2.8792,-5.8569,0.0001
2.8833,-5.8569,0.0001
2.8875,-5.8569,0.0001
2.8917,-5.8569,0.0001
2.8958,-5.8569,0.0001
2.9000,-5.8569,0.0001
2.9042,-5.8569,0.0000
2.9083,-5.8569,0.0000
2.9125,-5.8569,0.0000
2.9167,-5.8568,0.0001
2.9208,-5.8568,0.0001
2.9250,-5.8568,0.0001
2.9292,-5.8568,0.0001
2.9333,-5.8569,0.0001
2.9375,-5.8569,0.0001
2.9417,-5.8568,0.0001
2.9458,-5.8568,0.0001
2.9500,-5.8568,0.0001
2.9542,-5.8568,0.0001
2.9583,-5.8568,0.0001
2.9625,-5.8568,0.0001
2.9667,-5.8568,0.0001
2.9708,-5.8568,0.0001
2.9750,-5.8568,0.0001
2.9792,-5.8568,0.0001
2.9833,-5.8568,0.0001
2.9875,-5.8568,0.0001
2.9917,-5.8568,0.0001
2.9958,-5.8568,0.0001
3.0000,-5.8568,0.0001
3.0042,-5.8568,0.0001
3.0083,-5.8568,0.0001
3.0125,-5.8568,0.0001
3.0167,-5.8568,0.0001
3.0208,-5.8568,0.0001
3.0250,-5.8568,0.0001
3.0292,-5.8568,0.0001
3.0333,-5.8568,0.0001
3.0375,-5.8568,0.0001
3.0417,-5.8568,0.0001
3.0458,-5.8568,0.0001
3.0500,-5.8568,0.0001
3.0542,-5.8568,0.0001
3.0583,-5.8568,0.0001
3.0625,-5.8568,0.0001
3.0667,-5.8568,0.0001
3.0708,-5.8568,0.0001
3.0750,-5.8568,0.0001
3.0792,-5.8568,0.0001
3.0833,-5.8568,0.0001
3.0875,-5.8568,0.0001
3.0917,-5.8568,0.0001
3.0958,-5.8568,0.0000
3.1000,-5.8567,0.0000
3.1042,-5.8567,0.0000
3.1083,-5.8567,0.0000
3.1125,-5.8567,0.0000
3.1167,-5.8567,0.0000
3.1208,-5.8567,0.0000
3.1250,-5.8567,0.0000
3.1292,-5.8567,0.0000
3.1333,-5.8567,0.0000
3.1375,-5.8567,0.0000
3.1417,-5.8567,0.0000
3.1458,-5.8567,0.0000
3.1500,-5.8567,0.0000
3.1542,-5.8567,0.0000
3.1583,-5.8567,0.0000
3.1625,-5.8567,0.0000
3.1667,-5.8567,0.0000
3.1708,-5.8567,0.0000
3.1750,-5.8567,0.0000
3.1792,-5.8567,0.0000
3.1833,-5.8567,0.0000
3.1875,-5.8567,0.0000
3.1917,-5.8567,0.0000
3.1958,-5.8567,0.0000
3.2000,-5.8567,0.0000
3.2042,-5.8567,0.0000
3.2083,-5.8567,0.0000
3.2125,-5.8567,0.0000
3.2167,-5.8567,0.0000
3.2208,-5.8566,0.0000
3.2250,-5.8566,0.0000
3.2292,-5.8566,0.0000
3.2333,-5.8566,0.0000
3.2375,-5.8566,0.0000
3.2417,-5.8566,0.0000
3.2458,-5.8566,0.0000
3.2500,-5.8566,0.0000
3.2542,-5.8566,0.0000
3.2583,-5.8566,0.0000
3.2625,-5.8566,0.0000
3.2667,-5.8566,0.0000
3.2708,-5.8566,0.0000
3.2750,-5.8566,0.0000
3.2792,-5.8566,0.0000
3.2833,-5.8566,0.0000
3.2875,-5.8566,0.0000
3.2917,-5.8566,0.0000
3.2958,-5.8569,-0.0003
3.3000,-5.8557,0.0008
3.3042,-5.8589,-0.0026
3.3083,-5.8495,0.0078
3.3125,-5.8619,-0.0083
3.3167,-5.8509,0.0052
3.3208,-5.8664,-0.0138
3.3250,-5.8270,0.0310
3.3292,-5.8207,-0.0153
3.3333,-5.7902,0.0271
3.3375,-5.7907,-0.0245
3.3417,-5.7575,0.0237
3.3458,-5.7646,-0.0344
3.3500,-5.7655,-0.0002
3.3542,-5.7958,-0.0401
3.3583,-5.8085,-0.0062
3.3625,-5.8049,-0.0207
3.3667,-5.7133,0.0257
3.3708,-5.6613,-0.0222
3.3750,-5.6059,0.0140
3.3792,-5.5886,-0.0320
3.3833,-5.5579,0.0151
3.3875,-5.5597,-0.0424
3.3917,-5.5422,0.0135
3.3958,-5.5675,-0.0486
3.4000,-5.4464,0.0497
3.4042,-5.3719,-0.0340
3.4083,-5.2945,0.0396
3.4125,-5.2519,-0.0431
3.4167,-5.1706,-0.0293
3.4208,-5.1318,-0.0306
3.4250,-5.1133,-0.0293
3.4292,-5.1116,-0.0283
3.4333,-5.1226,-0.0271
3.4375,-5.1430,-0.0259
3.4417,-5.1704,-0.0247
3.4458,-5.2028,-0.0235
3.4500,-5.2389,-0.0222
3.4542,-5.2777,-0.0209
3.4583,-5.3184,-0.0196
3.4625,-5.3606,-0.0183
3.4667,-5.4039,-0.0170
3.4708,-5.4481,-0.0157
3.4750,-5.4926,-0.0145
3.4792,-5.5373,-0.0132
3.4833,-5.5426,-0.0210
3.4875,-5.5301,-0.0225
3.4917,-5.5145,-0.0230
3.4958,-5.4980,-0.0236
3.5000,-5.4807,-0.0241
3.5042,-5.4624,-0.0247
3.5083,-5.4433,-0.0253
3.5125,-5.4233,-0.0260
3.5167,-5.4107,-0.0212
3.5208,-5.4061,-0.0174
3.5250,-5.4089,-0.0154
3.5292,-5.4166,-0.0148
3.5333,-5.4244,-0.0135
3.5375,-5.4337,-0.0123
3.5417,-5.4442,-0.0110
3.5458,-5.4560,-0.0098
3.5500,-5.4690,-0.0085
3.5542,-5.4830,-0.0073
3.5583,-5.4979,-0.0060
3.5625,-5.5138,-0.0048
3.5667,-5.5305,-0.0035
3.5708,-5.5479,-0.0022
3.5750,-5.5661,-0.0009
3.5792,-5.5850,0.0004
3.5833,-5.6045,0.0017
3.5875,-5.6246,0.0030
3.5917,-5.6452,0.0043
3.5958,-5.6664,0.0056
3.6000,-5.6880,0.0069
3.6042,-5.7109,0.0074
3.6083,-5.7338,0.0064
3.6125,-5.7535,0.0057
3.6167,-5.7705,0.0051
3.6208,-5.7854,0.0045
3.6250,-5.7981,0.0038
3.6292,-5.8090,0.0032
3.6333,-5.8180,0.0026
3.6375,-5.8254,0.0019
3.6417,-5.8312,0.0013
3.6458,-5.8355,0.0006
3.6500,-5.8385,-0.0001
3.6542,-5.8402,-0.0007
3.6583,-5.8408,-0.0014
3.6625,-5.8403,-0.0021
3.6667,-5.8387,-0.0027
3.6708,-5.8362,-0.0034
3.6750,-5.8328,-0.0041
3.6792,-5.8285,-0.0049
3.6833,-5.8235,-0.0056
3.6875,-5.8176,-0.0063
3.6917,-5.8111,-0.0070
3.6958,-5.8040,-0.0078
3.7000,-5.7962,-0.0085
3.7042,-5.7878,-0.0093
3.7083,-5.7789,-0.0100
3.7125,-5.7695,-0.0108
3.7167,-5.7585,-0.0104
3.7208,-5.7483,-0.0087
3.7250,-5.7416,-0.0076
3.7292,-5.7371,-0.0064
3.7333,-5.7347,-0.0052
3.7375,-5.7344,-0.0041
3.7417,-5.7360,-0.0029
3.7458,-5.7393,-0.0017
3.7500,-5.7443,-0.0005
3.7542,-5.7508,0.0008
3.7583,-5.7587,0.0020
3.7625,-5.7680,0.0032
3.7667,-5.7790,0.0040
3.7708,-5.7914,0.0035
3.7750,-5.8025,0.0024
3.7792,-5.8108,0.0018
3.7833,-5.8174,0.0010
3.7875,-5.8225,0.0003
3.7917,-5.8260,-0.0004
3.7958,-5.8282,-0.0011
3.8000,-5.8290,-0.0018
3.8042,-5.8287,-0.0026
3.8083,-5.8272,-0.0033
3.8125,-5.8247,-0.0041
3.8167,-5.8211,-0.0048
3.8208,-5.8167,-0.0056
3.8250,-5.8110,-0.0057
3.8292,-5.8050,-0.0053
3.8333,-5.7993,-0.0038
3.8375,-5.7965,-0.0026
3.8417,-5.7958,-0.0015
3.8458,-5.7970,-0.0003
3.8500,-5.8000,0.0009
3.8542,-5.8048,0.0021
3.8583,-5.8116,0.0024
3.8625,-5.8194,0.0015
3.8667,-5.8252,0.0006
3.8708,-5.8289,-0.0001
3.8750,-5.8313,-0.0009
3.8792,-5.8323,-0.0016
3.8833,-5.8321,-0.0024
3.8875,-5.8307,-0.0031
3.8917,-5.8281,-0.0037
3.8958,-5.8241,-0.0032
3.9000,-5.8210,-0.0029
3.9042,-5.8182,-0.0017
3.9083,-5.8174,-0.0004
3.9125,-5.8189,0.0003
3.9167,-5.8219,0.0006
3.9208,-5.8252,0.0010
3.9250,-5.8289,0.0013
3.9292,-5.8337,0.0004
3.9333,-5.8366,-0.0004
3.9375,-5.8314,-0.0006
3.9417,-5.8085,0.0021
3.9458,-5.7799,0.0001
3.9500,-5.7670,-0.0228
3.9542,-5.7428,-0.0021
3.9583,-5.7450,-0.0234
3.9625,-5.6365,0.0281
3.9667,-5.5616,-0.0332
3.9708,-5.4801,0.0106
3.9750,-5.4410,-0.0326
3.9792,-5.3913,0.0128
3.9833,-5.3768,-0.0387
3.9875,-5.3545,-0.0119
3.9917,-5.3562,-0.0588
3.9958,-5.3597,-0.0164
4.0000,-5.3752,-0.0463
4.0042,-5.3790,-0.0124
4.0083,-5.4104,-0.0669
4.0125,-5.4187,-0.0070
4.0167,-5.4613,-0.0805
4.0208,-5.4890,-0.0210
4.0250,-5.5239,-0.0544
4.0292,-5.5489,-0.0153
4.0333,-5.5911,-0.0523
4.0375,-5.4923,0.0304
4.0417,-5.4410,-0.0392
4.0458,-5.3784,0.0259
4.0500,-5.3464,-0.0676
4.0542,-5.2835,0.0399
4.0583,-5.2685,-0.0698
4.0625,-5.2240,0.0342
4.0667,-5.2809,0.0261
4.0708,-5.3510,0.0340
4.0750,-5.4277,0.0383
4.0792,-5.4694,0.0378
4.0833,-5.5204,0.0399
4.0875,-5.5905,0.0395
4.0917,-5.6564,0.0391
4.0958,-5.7190,0.0388
4.1000,-5.7782,0.0385
4.1042,-5.8342,0.0382
4.1083,-5.8870,0.0379
4.1125,-5.9367,0.0377
4.1167,-5.9833,0.0374
4.1208,-6.0270,0.0372
4.1250,-6.0679,0.0370
4.1292,-6.1061,0.0369
4.1333,-6.1418,0.0367
4.1375,-6.1751,0.0366
4.1417,-6.2061,0.0365
4.1458,-6.2349,0.0364
4.1500,-6.2617,0.0363
4.1542,-6.2866,0.0362
4.1583,-6.3098,0.0362
4.1625,-6.3313,0.0362
4.1667,-6.3514,0.0362
4.1708,-6.3701,0.0362
4.1750,-6.3875,0.0362
4.1792,-6.4038,0.0362
4.1833,-6.4189,0.0363
4.1875,-6.4332,0.0364
4.1917,-6.4466,0.0364
4.1958,-6.4592,0.0365
4.2000,-6.4709,0.0367
4.2042,-6.4821,0.0368
4.2083,-6.4927,0.0369
4.2125,-6.5027,0.0371
4.2167,-6.5123,0.0373
4.2208,-6.5214,0.0375
4.2250,-6.5302,0.0377
4.2292,-6.5387,0.0380
4.2333,-6.5470,0.0383
4.2375,-6.5551,0.0386
4.2417,-6.5630,0.0389
4.2458,-6.5708,0.0392
4.2500,-6.5784,0.0396
4.2542,-6.5861,0.0399
4.2583,-6.5937,0.0403
4.2625,-6.6014,0.0407
4.2667,-6.6091,0.0412
4.2708,-6.6168,0.0416
4.2750,-6.6247,0.0421
4.2792,-6.6327,0.0426
4.2833,-6.6408,0.0432
4.2875,-6.6491,0.0437
4.2917,-6.6576,0.0443
4.2958,-6.6663,0.0449
4.3000,-6.6752,0.0456
4.3042,-6.6843,0.0462
4.3083,-6.6938,0.0469
4.3125,-6.7035,0.0476
4.3167,-6.7134,0.0484
4.3208,-6.7237,0.0492
4.3250,-6.7343,0.0500
4.3292,-6.7453,0.0508
4.3333,-6.7584,0.0489
4.3375,-6.7676,0.0480
4.3417,-6.7751,0.0470
4.3458,-6.7806,0.0460
4.3500,-6.7843,0.0450
4.3542,-6.7864,0.0440
4.3583,-6.7870,0.0431
4.3625,-6.7862,0.0422
4.3667,-6.7841,0.0413
4.3708,-6.7809,0.0404
4.3750,-6.7765,0.0395
4.3792,-6.7712,0.0386
4.3833,-6.7649,0.0377
4.3875,-6.7579,0.0369
4.3917,-6.7500,0.0361
4.3958,-6.7415,0.0353
4.4000,-6.7324,0.0345
4.4042,-6.7228,0.0337
4.4083,-6.7126,0.0329
4.4125,-6.7021,0.0322
4.4167,-6.6911,0.0314
4.4208,-6.6798,0.0307
4.4250,-6.6682,0.0300
4.4292,-6.6563,0.0293
4.4333,-6.6442,0.0286
4.4375,-6.6320,0.0279
4.4417,-6.6195,0.0272
4.4458,-6.6069,0.0266
4.4500,-6.5942,0.0259
4.4542,-6.5815,0.0253
4.4583,-6.5686,0.0247
4.4625,-6.5558,0.0240
4.4667,-6.5429,0.0234
4.4708,-6.5300,0.0228
4.4750,-6.5171,0.0223
4.4792,-6.5042,0.0217
4.4833,-6.4914,0.0211
4.4875,-6.4786,0.0206
4.4917,-6.4659,0.0200
4.4958,-6.4532,0.0195
4.5000,-6.4407,0.0190
4.5042,-6.4282,0.0184
4.5083,-6.4158,0.0179
4.5125,-6.4035,0.0174
4.5167,-6.3913,0.0169
4.5208,-6.3792,0.0164
4.5250,-6.3672,0.0159
4.5292,-6.3553,0.0155
4.5333,-6.3435,0.0150
4.5375,-6.3319,0.0145
4.5417,-6.3204,0.0141
4.5458,-6.3090,0.0136
4.5500,-6.2977,0.0132
4.5542,-6.2865,0.0127
4.5583,-6.2755,0.0123
4.5625,-6.2646,0.0119
4.5667,-6.2538,0.0114
4.5708,-6.2431,0.0110
4.5750,-6.2325,0.0106
4.5792,-6.2221,0.0102
4.5833,-6.2118,0.0098
4.5875,-6.2016,0.0094
4.5917,-6.1915,0.0090
4.5958,-6.1815,0.0086
4.6000,-6.1716,0.0082
4.6042,-6.1619,0.0078
4.6083,-6.1522,0.0074
4.6125,-6.1426,0.0071
4.6167,-6.1332,0.0067
4.6208,-6.1238,0.0063
4.6250,-6.1145,0.0059
4.6292,-6.1054,0.0056
4.6333,-6.0963,0.0052
4.6375,-6.0872,0.0048
4.6417,-6.0783,0.0045
4.6458,-6.0694,0.0041
4.6500,-6.0607,0.0037
4.6542,-6.0519,0.0034
4.6583,-6.0433,0.0030
4.6625,-6.0347,0.0026
4.6667,-6.0262,0.0023
4.6708,-6.0177,0.0019
4.6750,-6.0093,0.0016
4.6792,-6.0009,0.0012
4.6833,-5.9926,0.0008
4.6875,-5.9843,0.0005
4.6917,-5.9761,0.0001
4.6958,-5.9679,-0.0003
4.7000,-5.9597,-0.0006
4.7042,-5.9515,-0.0010
4.7083,-5.9434,-0.0014
4.7125,-5.9353,-0.0017
4.7167,-5.9272,-0.0021
4.7208,-5.9191,-0.0025
4.7250,-5.9110,-0.0029
4.7292,-5.9029,-0.0033
4.7333,-5.8948,-0.0036
4.7375,-5.8867,-0.0040
4.7417,-5.8786,-0.0044
4.7458,-5.8704,-0.0048
4.7500,-5.8623,-0.0052
4.7542,-5.8541,-0.0056
4.7583,-5.8459,-0.0060
4.7625,-5.8377,-0.0064
4.7667,-5.8294,-0.0069
4.7708,-5.8211,-0.0073
4.7750,-5.8128,-0.0077
4.7792,-5.8044,-0.0081
4.7833,-5.7959,-0.0086
4.7875,-5.7874,-0.0090
4.7917,-5.7789,-0.0095
4.7958,-5.7702,-0.0099
4.8000,-5.7615,-0.0104
4.8042,-5.7528,-0.0109
4.8083,-5.7439,-0.0113
4.8125,-5.7349,-0.0118
4.8167,-5.7259,-0.0123
4.8208,-5.7168,-0.0128
4.8250,-5.7075,-0.0133
4.8292,-5.6982,-0.0138
4.8333,-5.6887,-0.0144
4.8375,-5.6791,-0.0149
4.8417,-5.6695,-0.0155
4.8458,-5.6596,-0.0160
4.8500,-5.6497,-0.0166
4.8542,-5.6396,-0.0172
4.8583,-5.6293,-0.0177
4.8625,-5.6190,-0.0183
4.8667,-5.6084,-0.0190
4.8708,-5.5977,-0.0196
4.8750,-5.5869,-0.0202
4.8792,-5.5758,-0.0209
4.8833,-5.5646,-0.0215
4.8875,-5.5516,-0.0190
4.8917,-5.5441,-0.0187
4.8958,-5.5368,-0.0173
4.9000,-5.5323,-0.0161
4.9042,-5.5298,-0.0149
4.9083,-5.5294,-0.0137
4.9125,-5.5310,-0.0125
4.9167,-5.5343,-0.0113
4.9208,-5.5394,-0.0100
4.9250,-5.5459,-0.0088
4.9292,-5.5540,-0.0076
4.9333,-5.5634,-0.0063
4.9375,-5.5740,-0.0051
4.9417,-5.5858,-0.0038
4.9458,-5.5987,-0.0026
4.9500,-5.6126,-0.0013
4.9542,-5.6274,-0.0000
4.9583,-5.6431,0.0012
4.9625,-5.6596,0.0025
4.9667,-5.6769,0.0038
4.9708,-5.6959,0.0030
4.9750,-5.7124,0.0028
4.9792,-5.7276,0.0023
4.9833,-5.7412,0.0017
4.9875,-5.7528,0.0011
4.9917,-5.7626,0.0005
4.9958,-5.7707,-0.0002
5.0000,-5.7772,-0.0008
5.0042,-5.7823,-0.0014
5.0083,-5.7860,-0.0021
5.0125,-5.7884,-0.0027
5.0167,-5.7896,-0.0034
5.0208,-5.7897,-0.0041
5.0250,-5.7888,-0.0047
5.0292,-5.7869,-0.0054
5.0333,-5.7841,-0.0061
5.0375,-5.7804,-0.0068
5.0417,-5.7759,-0.0075
5.0458,-5.7707,-0.0082
5.0500,-5.7647,-0.0090
5.0542,-5.7576,-0.0092
5.0583,-5.7497,-0.0068
5.0625,-5.7466,-0.0067
5.0667,-5.7433,-0.0053
5.0708,-5.7423,-0.0042
5.0750,-5.7432,-0.0030
5.0792,-5.7459,-0.0018
5.0833,-5.7501,-0.0006
5.0875,-5.7560,0.0006
5.0917,-5.7632,0.0018
5.0958,-5.7728,0.0012
5.1000,-5.7806,0.0007
5.1042,-5.7875,0.0005
5.1083,-5.7939,-0.0003
5.1125,-5.7986,-0.0009
5.1167,-5.8019,-0.0016
5.1208,-5.8039,-0.0023
5.1250,-5.8046,-0.0031
5.1292,-5.8042,-0.0038
5.1333,-5.8027,-0.0045
5.1375,-5.7999,-0.0049
5.1417,-5.7963,-0.0042
5.1458,-5.7938,-0.0037
5.1500,-5.7920,-0.0027
5.1542,-5.7916,-0.0016
5.1583,-5.7929,-0.0004
5.1625,-5.7960,0.0007
5.1667,-5.8014,0.0000
5.1708,-5.8051,0.0004
5.1750,-5.8093,0.0002
5.1792,-5.8133,-0.0004
5.1833,-5.8165,-0.0011
5.1875,-5.8182,-0.0018
5.1917,-5.8187,-0.0026
5.1958,-5.8176,-0.0027
5.2000,-5.8161,-0.0024
5.2042,-5.8154,-0.0024
5.2083,-5.8148,-0.0023
5.2125,-5.8139,-0.0020
5.2167,-5.8132,-0.0010
5.2208,-5.8142,-0.0005
5.2250,-5.8161,-0.0004
5.2292,-5.8183,-0.0003
5.2333,-5.8204,-0.0003
5.2375,-5.8225,-0.0002
5.2417,-5.8245,-0.0001
5.2458,-5.8264,-0.0001
5.2500,-5.8286,-0.0004
5.2542,-5.8302,-0.0010
5.2583,-5.8308,-0.0013
5.2625,-5.8306,-0.0012
5.2667,-5.8305,-0.0011
5.2708,-5.8308,-0.0011
5.2750,-5.8310,-0.0010
5.2792,-5.8312,-0.0010
5.2833,-5.8315,-0.0009
5.2875,-5.8319,-0.0009
5.2917,-5.8323,-0.0008
5.2958,-5.8328,-0.0008
5.3000,-5.8332,-0.0007
5.3042,-5.8338,-0.0007
5.3083,-5.8343,-0.0006
5.3125,-5.8349,-0.0006
5.3167,-5.8355,-0.0005
5.3208,-5.8361,-0.0005
5.3250,-5.8368,-0.0004
5.3292,-5.8374,-0.0004
5.3333,-5.8381,-0.0003
5.3375,-5.8389,-0.0003
5.3417,-5.8396,-0.0002
5.3458,-5.8403,-0.0002
5.3500,-5.8411,-0.0002
5.3542,-5.8419,-0.0001
5.3583,-5.8428,-0.0002
5.3625,-5.8436,-0.0003
5.3667,-5.8441,-0.0005
5.3708,-5.8442,-0.0005
5.3750,-5.8442,-0.0005
5.3792,-5.8443,-0.0004
5.3833,-5.8445,-0.0004
5.3875,-5.8447,-0.0004
5.3917,-5.8449,-0.0004
5.3958,-5.8451,-0.0004
5.4000,-5.8453,-0.0004
5.4042,-5.8455,-0.0003
5.4083,-5.8458,-0.0003
5.4125,-5.8460,-0.0003
5.4167,-5.8462,-0.0003
5.4208,-5.8464,-0.0003
5.4250,-5.8466,-0.0003
5.4292,-5.8469,-0.0003
5.4333,-5.8471,-0.0003
5.4375,-5.8473,-0.0003
5.4417,-5.8475,-0.0003
5.4458,-5.8477,-0.0003
5.4500,-5.8479,-0.0003
5.4542,-5.8480,-0.0003
5.4583,-5.8482,-0.0003
5.4625,-5.8484,-0.0002
5.4667,-5.8486,-0.0002
5.4708,-5.8488,-0.0002
5.4750,-5.8489,-0.0002
5.4792,-5.8491,-0.0002
5.4833,-5.8493,-0.0002
5.4875,-5.8494,-0.0002
5.4917,-5.8496,-0.0002
5.4958,-5.8497,-0.0002
5.5000,-5.8499,-0.0002
5.5042,-5.8500,-0.0002
5.5083,-5.8502,-0.0002
5.5125,-5.8503,-0.0002
5.5167,-5.8504,-0.0002
5.5208,-5.8506,-0.0002
5.5250,-5.8507,-0.0002
5.5292,-5.8508,-0.0002
5.5333,-5.8509,-0.0001
5.5375,-5.8511,0.0001
5.5417,-5.8515,0.0001
5.5458,-5.8518,0.0001
5.5500,-5.8522,0.0001
5.5542,-5.8525,0.0001
5.5583,-5.8528,0.0001
5.5625,-5.8530,0.0000
5.5667,-5.8431,0.0251
5.5708,-5.8298,0.0583
5.5750,-5.8010,0.1097
5.5792,-5.7094,0.2572
5.5833,-5.5844,0.2956
5.5875,-5.5246,0.2535
5.5917,-5.3531,0.3877
5.5958,-4.9634,0.5191
5.6000,-4.3641,0.6353
5.6042,-3.6754,0.6283
5.6083,-2.8211,0.8375
5.6125,-2.0545,0.6867
5.6167,-1.1961,0.8611
5.6208,-0.2196,0.9086
5.6250,0.7195,0.9152
5.6292,1.6547,0.9147
5.6333,2.5872,0.9146
5.6375,3.5173,0.9145
5.6417,4.4451,0.9144
5.6458,5.3477,0.9427
5.6500,6.2473,0.9429
5.6542,7.1450,0.9432
5.6583,8.0411,0.9435
5.6625,8.9361,0.9438
5.6667,9.8290,0.9492
5.6708,10.7038,0.9882
5.6750,11.5756,0.9896
5.6792,12.4461,0.9903
5.6833,13.3160,0.9906
5.6875,14.1845,0.9918
5.6917,15.0523,0.9937
5.6958,15.8984,1.0500
5.7000,16.7421,1.0488
5.7042,17.5845,1.0488
5.7083,18.4254,1.0510
5.7125,19.2655,1.0532
5.7167,20.1052,1.0552
5.7208,20.9354,1.1183
5.7250,21.7639,1.1185
5.7292,22.5920,1.1169
5.7333,23.4195,1.1192
5.7375,24.2470,1.1215
5.7417,25.0480,1.1350
5.7458,25.8463,1.1920
5.7500,26.6448,1.1927
5.7542,27.4437,1.1933
5.7583,28.2419,1.1908
5.7625,29.0393,1.1882
5.7667,29.8338,1.2084
5.7708,30.6498,1.2596
5.7750,31.4702,1.2603
5.7792,32.2948,1.2612
5.7833,33.1259,1.2646
5.7875,33.9600,1.2622
5.7917,34.8302,1.2789
5.7958,35.7201,1.3138
5.8000,36.6113,1.3121
5.8042,37.5035,1.3103
5.8083,38.3950,1.3067
5.8125,39.3185,1.3173
5.8167,40.2787,1.3535
