Time (s),Pitch (deg),Velocity (m/s)
0.0000,-0.7853,-0.0680
0.0042,-1.0926,-0.0467
0.0083,-1.6137,-0.0376
0.0125,-2.1168,-0.0322
0.0167,-2.6176,-0.0326
0.0208,-3.1190,-0.0332
0.0250,-3.6309,-0.0333
0.0292,-4.2349,-0.0226
0.0333,-4.8293,-0.0235
0.0375,-5.4094,-0.0245
0.0417,-5.9735,-0.0263
0.0458,-6.5204,-0.0288
0.0500,-7.0485,-0.0301
0.0542,-7.5565,-0.0313
0.0583,-8.0490,-0.0209
0.0625,-8.5248,-0.0231
0.0667,-8.9804,-0.0251
0.0708,-9.4145,-0.0269
0.0750,-9.8259,-0.0284
0.0792,-10.2139,-0.0297
0.0833,-10.5780,-0.0307
0.0875,-10.9233,-0.0254
0.0917,-11.2499,-0.0281
0.0958,-11.5552,-0.0305
0.1000,-11.8387,-0.0327
0.1042,-12.1005,-0.0351
0.1083,-12.3412,-0.0369
0.1125,-12.5621,-0.0386
0.1167,-12.7643,-0.0402
0.1208,-12.9492,-0.0418
0.1250,-13.1180,-0.0434
0.1292,-13.2721,-0.0450
0.1333,-13.4127,-0.0466
0.1375,-13.5411,-0.0483
0.1417,-13.6584,-0.0501
0.1458,-13.7655,-0.0519
0.1500,-13.8635,-0.0537
0.1542,-13.9532,-0.0556
0.1583,-14.0352,-0.0576
0.1625,-14.1103,-0.0597
0.1667,-14.1791,-0.0618
0.1708,-14.2421,-0.0640
0.1750,-14.2997,-0.0662
0.1792,-14.3525,-0.0686
0.1833,-14.4009,-0.0709
0.1875,-14.4450,-0.0734
0.1917,-14.4854,-0.0760
0.1958,-14.5222,-0.0786
0.2000,-14.5557,-0.0812
0.2042,-14.5862,-0.0840
0.2083,-14.6137,-0.0868
0.2125,-14.6386,-0.0897
0.2167,-14.6610,-0.0927
0.2208,-14.6809,-0.0957
0.2250,-14.6985,-0.0988
0.2292,-14.7139,-0.1020
0.2333,-14.7271,-0.1053
0.2375,-14.7382,-0.1086
0.2417,-14.7471,-0.1120
0.2458,-14.7538,-0.1155
0.2500,-14.7582,-0.1191
0.2542,-14.7602,-0.1227
0.2583,-14.7593,-0.1264
0.2625,-14.7552,-0.1302
0.2667,-14.7474,-0.1340
0.2708,-14.7349,-0.1378
0.2750,-14.7165,-0.1416
0.2792,-14.6906,-0.1454
0.2833,-14.6547,-0.1492
0.2875,-14.6060,-0.1529
0.2917,-14.5425,-0.1565
0.2958,-14.4655,-0.1605
0.3000,-14.3808,-0.1652
0.3042,-14.2947,-0.1584
0.3083,-14.2421,-0.1657
0.3125,-14.1886,-0.1691
0.3167,-14.1311,-0.1723
0.3208,-14.0694,-0.1756
0.3250,-14.0045,-0.1792
0.3292,-13.9376,-0.1830
0.3333,-13.8696,-0.1870
0.3375,-13.8009,-0.1912
0.3417,-13.7319,-0.1958
0.3458,-13.6624,-0.2003
0.3500,-13.5932,-0.2049
0.3542,-13.5245,-0.2097
0.3583,-13.4564,-0.2146
0.3625,-13.3898,-0.2071
0.3667,-13.3462,-0.2128
0.3708,-13.2987,-0.2157
0.3750,-13.2510,-0.2190
0.3792,-13.2030,-0.2225
0.3833,-13.1548,-0.2264
0.3875,-13.1060,-0.2301
0.3917,-13.0573,-0.2340
0.3958,-13.0086,-0.2380
0.4000,-12.9600,-0.2422
0.4042,-12.9114,-0.2465
0.4083,-12.8627,-0.2509
0.4125,-12.8139,-0.2555
0.4167,-12.7658,-0.2472
0.4208,-12.7376,-0.2523
0.4250,-12.7073,-0.2552
0.4292,-12.6760,-0.2583
0.4333,-12.6437,-0.2616
0.4375,-12.6103,-0.2652
0.4417,-12.5756,-0.2688
0.4458,-12.5401,-0.2725
0.4500,-12.5038,-0.2763
0.4542,-12.4666,-0.2804
0.4583,-12.4285,-0.2846
0.4625,-12.3895,-0.2889
0.4667,-12.3502,-0.2798
0.4708,-12.3306,-0.2847
0.4750,-12.3102,-0.2876
0.4792,-12.2880,-0.2906
0.4833,-12.2638,-0.2939
0.4875,-12.2372,-0.2973
0.4917,-12.2087,-0.3007
0.4958,-12.1785,-0.3043
0.5000,-12.1468,-0.3081
0.5042,-12.1136,-0.3121
0.5083,-12.0790,-0.3163
0.5125,-12.0429,-0.3207
0.5167,-12.0059,-0.3105
0.5208,-11.9896,-0.3156
0.5250,-11.9734,-0.3188
0.5292,-11.9549,-0.3218
0.5333,-11.9337,-0.3251
0.5375,-11.9099,-0.3285
0.5417,-11.8836,-0.3321
0.5458,-11.8551,-0.3359
0.5500,-11.8244,-0.3399
0.5542,-11.7919,-0.3441
0.5583,-11.7582,-0.3340
0.5625,-11.7436,-0.3389
0.5667,-11.7299,-0.3420
0.5708,-11.7140,-0.3450
0.5750,-11.6950,-0.3481
0.5792,-11.6732,-0.3515
0.5833,-11.6486,-0.3550
0.5875,-11.6213,-0.3591
0.5917,-11.5913,-0.3631
0.5958,-11.5591,-0.3672
0.6000,-11.5259,-0.3558
0.6042,-11.5128,-0.3609
0.6083,-11.5013,-0.3641
0.6125,-11.4877,-0.3672
0.6167,-11.4709,-0.3703
0.6208,-11.4509,-0.3737
0.6250,-11.4279,-0.3773
0.6292,-11.4018,-0.3815
0.6333,-11.3729,-0.3854
0.6375,-11.3420,-0.3897
0.6417,-11.3096,-0.3775
0.6458,-11.2972,-0.3827
0.6500,-11.2871,-0.3861
0.6542,-11.2750,-0.3894
0.6583,-11.2596,-0.3927
0.6625,-11.2408,-0.3962
0.6667,-11.2188,-0.3999
0.6708,-11.1940,-0.4039
0.6750,-11.1669,-0.4081
0.6792,-11.1377,-0.3962
0.6833,-11.1266,-0.4012
0.6875,-11.1179,-0.4047
0.6917,-11.1073,-0.4080
0.6958,-11.0933,-0.4114
0.7000,-11.0758,-0.4149
0.7042,-11.0550,-0.4187
0.7083,-11.0314,-0.4227
0.7125,-11.0058,-0.4108
0.7167,-10.9970,-0.4155
0.7208,-10.9908,-0.4189
0.7250,-10.9827,-0.4220
0.7292,-10.9711,-0.4252
0.7333,-10.9558,-0.4286
0.7375,-10.9369,-0.4326
0.7417,-10.9143,-0.4366
0.7458,-10.8887,-0.4407
0.7500,-10.8611,-0.4274
0.7542,-10.8517,-0.4324
0.7583,-10.8456,-0.4360
0.7625,-10.8380,-0.4393
0.7667,-10.8272,-0.4427
0.7708,-10.8126,-0.4463
0.7750,-10.7946,-0.4501
0.7792,-10.7735,-0.4541
0.7833,-10.7498,-0.4413
0.7875,-10.7422,-0.4461
0.7917,-10.7377,-0.4497
0.7958,-10.7316,-0.4530
0.8000,-10.7220,-0.4564
0.8042,-10.7087,-0.4600
0.8083,-10.6916,-0.4637
0.8125,-10.6713,-0.4679
0.8167,-10.6482,-0.4547
0.8208,-10.6410,-0.4595
0.8250,-10.6370,-0.4631
0.8292,-10.6317,-0.4665
0.8333,-10.6229,-0.4699
0.8375,-10.6103,-0.4735
0.8417,-10.5939,-0.4775
0.8458,-10.5737,-0.4820
0.8500,-10.5500,-0.4676
0.8542,-10.5427,-0.4725
0.8583,-10.5393,-0.4763
0.8625,-10.5346,-0.4798
0.8667,-10.5267,-0.4833
0.8708,-10.5149,-0.4870
0.8750,-10.4992,-0.4909
0.8792,-10.4806,-0.4775
0.8833,-10.4764,-0.4822
0.8875,-10.4754,-0.4858
0.8917,-10.4728,-0.4892
0.8958,-10.4664,-0.4932
0.9000,-10.4548,-0.4967
0.9042,-10.4387,-0.5004
0.9083,-10.4189,-0.5045
0.9125,-10.3962,-0.4895
0.9167,-10.3898,-0.4945
0.9208,-10.3875,-0.4984
0.9250,-10.3843,-0.5020
0.9292,-10.3778,-0.5056
0.9333,-10.3673,-0.5093
0.9375,-10.3528,-0.5133
0.9417,-10.3347,-0.4993
0.9458,-10.3309,-0.5040
0.9500,-10.3303,-0.5078
0.9542,-10.3284,-0.5113
0.9583,-10.3228,-0.5148
0.9625,-10.3127,-0.5190
0.9667,-10.2976,-0.5231
0.9708,-10.2786,-0.5077
0.9750,-10.2746,-0.5126
0.9792,-10.2744,-0.5169
0.9833,-10.2723,-0.5207
0.9875,-10.2659,-0.5241
0.9917,-10.2550,-0.5277
0.9958,-10.2397,-0.5315
1.0000,-10.2212,-0.5161
1.0042,-10.2178,-0.5219
1.0083,-10.2174,-0.5256
1.0125,-10.2154,-0.5290
1.0167,-10.2097,-0.5325
1.0208,-10.1996,-0.5361
1.0250,-10.1852,-0.5400
1.0292,-10.1674,-0.5243
1.0333,-10.1647,-0.5292
1.0375,-10.1658,-0.5340
1.0417,-10.1648,-0.5374
1.0458,-10.1597,-0.5409
1.0500,-10.1500,-0.5445
1.0542,-10.1356,-0.5485
1.0583,-10.1177,-0.5326
1.0625,-10.1148,-0.5375
1.0667,-10.1159,-0.5419
1.0708,-10.1154,-0.5460
1.0750,-10.1105,-0.5495
1.0792,-10.1008,-0.5532
1.0833,-10.0863,-0.5571
1.0875,-10.0678,-0.5409
1.0917,-10.0644,-0.5460
1.0958,-10.0651,-0.5500
1.1000,-10.0650,-0.5538
1.1042,-10.0614,-0.5575
1.1083,-10.0530,-0.5620
1.1125,-10.0391,-0.5662
1.1167,-10.0201,-0.5497
1.1208,-10.0157,-0.5548
1.1250,-10.0155,-0.5590
1.1292,-10.0144,-0.5628
1.1333,-10.0100,-0.5667
1.1375,-10.0012,-0.5707
1.1417,-9.9882,-0.5556
1.1458,-9.9881,-0.5604
1.1500,-9.9912,-0.5646
1.1542,-9.9923,-0.5690
1.1583,-9.9882,-0.5726
1.1625,-9.9786,-0.5763
1.1667,-9.9639,-0.5803
1.1708,-9.9445,-0.5635
1.1750,-9.9399,-0.5687
1.1792,-9.9397,-0.5729
1.1833,-9.9388,-0.5768
1.1875,-9.9344,-0.5807
1.1917,-9.9256,-0.5847
1.1958,-9.9124,-0.5693
1.2000,-9.9121,-0.5742
1.2042,-9.9148,-0.5792
1.2083,-9.9148,-0.5829
1.2125,-9.9100,-0.5866
1.2167,-9.9000,-0.5904
1.2208,-9.8849,-0.5945
1.2250,-9.8649,-0.5773
1.2292,-9.8598,-0.5827
1.2333,-9.8592,-0.5870
1.2375,-9.8580,-0.5910
1.2417,-9.8535,-0.5951
1.2458,-9.8446,-0.5992
1.2500,-9.8310,-0.5834
1.2542,-9.8300,-0.5884
1.2583,-9.8324,-0.5926
1.2625,-9.8333,-0.5966
1.2667,-9.8302,-0.6005
1.2708,-9.8220,-0.6046
1.2750,-9.8090,-0.5886
1.2792,-9.8084,-0.5937
1.2833,-9.8108,-0.5990
1.2875,-9.8103,-0.6026
1.2917,-9.8050,-0.6064
1.2958,-9.7944,-0.6103
1.3000,-9.7791,-0.5940
1.3042,-9.7768,-0.5992
1.3083,-9.7777,-0.6032
1.3125,-9.7771,-0.6070
1.3167,-9.7725,-0.6108
1.3208,-9.7629,-0.6147
1.3250,-9.7485,-0.6189
1.3292,-9.7287,-0.6012
1.3333,-9.7237,-0.6067
1.3375,-9.7233,-0.6112
1.3417,-9.7223,-0.6154
1.3458,-9.7181,-0.6195
1.3500,-9.7096,-0.6238
1.3542,-9.6957,-0.6076
1.3583,-9.6943,-0.6128
1.3625,-9.6963,-0.6172
1.3667,-9.6970,-0.6213
1.3708,-9.6939,-0.6255
1.3750,-9.6859,-0.6297
1.3792,-9.6720,-0.6133
1.3833,-9.6704,-0.6185
1.3875,-9.6721,-0.6230
1.3917,-9.6722,-0.6271
1.3958,-9.6685,-0.6313
1.4000,-9.6599,-0.6356
1.4042,-9.6454,-0.6191
1.4083,-9.6431,-0.6244
1.4125,-9.6441,-0.6289
1.4167,-9.6436,-0.6331
1.4208,-9.6393,-0.6373
1.4250,-9.6302,-0.6416
1.4292,-9.6151,-0.6250
1.4333,-9.6123,-0.6304
1.4375,-9.6129,-0.6350
1.4417,-9.6120,-0.6392
1.4458,-9.6074,-0.6435
1.4500,-9.5983,-0.6270
1.4542,-9.6014,-0.6322
1.4583,-9.6075,-0.6365
1.4625,-9.6115,-0.6405
1.4667,-9.6104,-0.6452
1.4708,-9.6023,-0.6496
1.4750,-9.5878,-0.6311
1.4792,-9.5863,-0.6374
1.4833,-9.5872,-0.6422
1.4875,-9.5856,-0.6461
1.4917,-9.5793,-0.6501
1.4958,-9.5677,-0.6542
1.5000,-9.5508,-0.6356
1.5042,-9.5480,-0.6412
1.5083,-9.5495,-0.6458
1.5125,-9.5500,-0.6502
1.5167,-9.5461,-0.6553
1.5208,-9.5361,-0.6594
1.5250,-9.5198,-0.6407
1.5292,-9.5170,-0.6463
1.5333,-9.5184,-0.6509
1.5375,-9.5187,-0.6552
1.5417,-9.5153,-0.6594
1.5458,-9.5070,-0.6641
1.5500,-9.4921,-0.6466
1.5542,-9.4897,-0.6521
1.5583,-9.4907,-0.6567
1.5625,-9.4905,-0.6611
1.5667,-9.4865,-0.6654
1.5708,-9.4777,-0.6485
1.5750,-9.4810,-0.6538
1.5792,-9.4873,-0.6583
1.5833,-9.4915,-0.6624
1.5875,-9.4907,-0.6672
1.5917,-9.4832,-0.6718
1.5958,-9.4683,-0.6528
1.6000,-9.4662,-0.6583
1.6042,-9.4676,-0.6630
1.6083,-9.4676,-0.6673
1.6125,-9.4636,-0.6717
1.6167,-9.4541,-0.6770
1.6208,-9.4371,-0.6580
1.6250,-9.4331,-0.6637
1.6292,-9.4330,-0.6684
1.6333,-9.4318,-0.6729
1.6375,-9.4271,-0.6773
1.6417,-9.4176,-0.6601
1.6458,-9.4201,-0.6656
1.6500,-9.4257,-0.6702
1.6542,-9.4293,-0.6744
1.6583,-9.4283,-0.6787
1.6625,-9.4213,-0.6836
1.6667,-9.4069,-0.6652
1.6708,-9.4045,-0.6707
1.6750,-9.4054,-0.6755
1.6792,-9.4047,-0.6799
1.6833,-9.4002,-0.6843
1.6875,-9.3906,-0.6670
1.6917,-9.3930,-0.6724
1.6958,-9.3983,-0.6770
1.7000,-9.4012,-0.6821
1.7042,-9.3985,-0.6867
1.7083,-9.3889,-0.6909
1.7125,-9.3724,-0.6715
1.7167,-9.3689,-0.6772
1.7208,-9.3692,-0.6821
1.7250,-9.3684,-0.6865
1.7292,-9.3639,-0.6910
1.7333,-9.3546,-0.6736
1.7375,-9.3573,-0.6791
1.7417,-9.3629,-0.6838
1.7458,-9.3661,-0.6893
1.7500,-9.3632,-0.6934
1.7542,-9.3537,-0.6976
1.7583,-9.3371,-0.6781
1.7625,-9.3336,-0.6839
1.7667,-9.3341,-0.6888
1.7708,-9.3334,-0.6933
1.7750,-9.3290,-0.6978
1.7792,-9.3196,-0.6802
1.7833,-9.3221,-0.6858
1.7875,-9.3276,-0.6905
1.7917,-9.3310,-0.6949
1.7958,-9.3294,-0.6999
1.8000,-9.3211,-0.7047
1.8042,-9.3049,-0.6851
1.8083,-9.3012,-0.6909
1.8125,-9.3011,-0.6958
1.8167,-9.2999,-0.7004
1.8208,-9.2951,-0.7049
1.8250,-9.2848,-0.6873
1.8292,-9.2864,-0.6929
1.8333,-9.2909,-0.6977
1.8375,-9.2935,-0.7022
1.8417,-9.2916,-0.7066
1.8458,-9.2843,-0.6889
1.8500,-9.2884,-0.6945
1.8542,-9.2949,-0.6995
1.8583,-9.2983,-0.7049
1.8625,-9.2952,-0.7090
1.8667,-9.2854,-0.7133
1.8708,-9.2682,-0.6934
1.8750,-9.2640,-0.6993
1.8792,-9.2636,-0.7043
1.8833,-9.2620,-0.7090
1.8875,-9.2569,-0.7135
1.8917,-9.2464,-0.6958
1.8958,-9.2479,-0.7015
1.9000,-9.2522,-0.7063
1.9042,-9.2547,-0.7108
1.9083,-9.2526,-0.7153
1.9125,-9.2450,-0.6974
1.9167,-9.2488,-0.7030
1.9208,-9.2546,-0.7088
1.9250,-9.2569,-0.7135
1.9292,-9.2531,-0.7177
1.9333,-9.2429,-0.7220
1.9375,-9.2253,-0.7020
1.9417,-9.2207,-0.7080
1.9458,-9.2201,-0.7130
1.9500,-9.2184,-0.7178
1.9542,-9.2133,-0.7224
1.9583,-9.2026,-0.7045
1.9625,-9.2038,-0.7103
1.9667,-9.2078,-0.7152
1.9708,-9.2100,-0.7198
1.9750,-9.2079,-0.7243
1.9792,-9.2000,-0.7064
1.9833,-9.2032,-0.7121
1.9875,-9.2090,-0.7169
1.9917,-9.2123,-0.7214
1.9958,-9.2108,-0.7259
2.0000,-9.2033,-0.7077
2.0042,-9.2069,-0.7135
2.0083,-9.2119,-0.7197
2.0125,-9.2128,-0.7240
2.0167,-9.2078,-0.7282
2.0208,-9.1966,-0.7327
2.0250,-9.1782,-0.7125
2.0292,-9.1729,-0.7186
2.0333,-9.1715,-0.7238
2.0375,-9.1693,-0.7286
2.0417,-9.1638,-0.7333
2.0458,-9.1525,-0.7152
2.0500,-9.1530,-0.7211
2.0542,-9.1564,-0.7261
2.0583,-9.1581,-0.7308
2.0625,-9.1557,-0.7354
2.0667,-9.1471,-0.7173
2.0708,-9.1496,-0.7231
2.0750,-9.1546,-0.7281
2.0792,-9.1574,-0.7327
2.0833,-9.1556,-0.7373
2.0875,-9.1476,-0.7191
2.0917,-9.1505,-0.7249
2.0958,-9.1558,-0.7298
2.1000,-9.1586,-0.7344
2.1042,-9.1565,-0.7390
2.1083,-9.1482,-0.7206
2.1125,-9.1509,-0.7264
2.1167,-9.1558,-0.7313
2.1208,-9.1578,-0.7367
2.1250,-9.1547,-0.7417
2.1292,-9.1443,-0.7212
2.1333,-9.1437,-0.7278
2.1375,-9.1458,-0.7335
2.1417,-9.1448,-0.7379
2.1458,-9.1387,-0.7424
2.1500,-9.1272,-0.7230
2.1542,-9.1250,-0.7297
2.1583,-9.1260,-0.7342
2.1625,-9.1252,-0.7387
2.1667,-9.1202,-0.7432
2.1708,-9.1102,-0.7477
2.1750,-9.0933,-0.7273
2.1792,-9.0896,-0.7334
2.1833,-9.0900,-0.7387
2.1875,-9.0895,-0.7435
2.1917,-9.0858,-0.7483
2.1958,-9.0761,-0.7301
2.2000,-9.0777,-0.7360
2.2042,-9.0822,-0.7411
2.2083,-9.0849,-0.7459
2.2125,-9.0835,-0.7506
2.2167,-9.0754,-0.7323
2.2208,-9.0781,-0.7382
2.2250,-9.0832,-0.7433
2.2292,-9.0860,-0.7481
2.2333,-9.0845,-0.7528
2.2375,-9.0762,-0.7344
2.2417,-9.0785,-0.7403
2.2458,-9.0832,-0.7454
2.2500,-9.0855,-0.7502
2.2542,-9.0832,-0.7549
2.2583,-9.0744,-0.7364
2.2625,-9.0763,-0.7424
2.2667,-9.0804,-0.7475
2.2708,-9.0822,-0.7523
2.2750,-9.0795,-0.7570
2.2792,-9.0700,-0.7385
2.2833,-9.0714,-0.7444
2.2875,-9.0750,-0.7496
2.2917,-9.0762,-0.7543
2.2958,-9.0728,-0.7591
2.3000,-9.0629,-0.7405
2.3042,-9.0639,-0.7465
2.3083,-9.0670,-0.7516
2.3125,-9.0679,-0.7564
2.3167,-9.0642,-0.7612
2.3208,-9.0541,-0.7426
2.3250,-9.0548,-0.7486
2.3292,-9.0578,-0.7538
2.3333,-9.0586,-0.7586
2.3375,-9.0548,-0.7633
2.3417,-9.0445,-0.7447
2.3458,-9.0450,-0.7507
2.3500,-9.0477,-0.7559
2.3542,-9.0482,-0.7607
2.3583,-9.0443,-0.7655
2.3625,-9.0339,-0.7469
2.3667,-9.0344,-0.7529
2.3708,-9.0372,-0.7581
2.3750,-9.0378,-0.7630
2.3792,-9.0340,-0.7677
2.3833,-9.0236,-0.7491
2.3875,-9.0240,-0.7551
2.3917,-9.0268,-0.7603
2.3958,-9.0273,-0.7652
2.4000,-9.0235,-0.7700
2.4042,-9.0131,-0.7513
2.4083,-9.0134,-0.7574
2.4125,-9.0161,-0.7627
2.4167,-9.0166,-0.7676
2.4208,-9.0129,-0.7724
2.4250,-9.0025,-0.7537
2.4292,-9.0028,-0.7598
2.4333,-9.0056,-0.7651
2.4375,-9.0062,-0.7700
2.4417,-9.0027,-0.7749
2.4458,-8.9923,-0.7562
2.4500,-8.9925,-0.7623
2.4542,-8.9951,-0.7676
2.4583,-8.9956,-0.7726
2.4625,-8.9920,-0.7539
2.4667,-9.0001,-0.7601
2.4708,-9.0103,-0.7652
2.4750,-9.0175,-0.7699
2.4792,-9.0190,-0.7745
2.4833,-9.0139,-0.7556
2.4875,-9.0169,-0.7619
2.4917,-9.0197,-0.7681
2.4958,-9.0202,-0.7729
2.5000,-9.0145,-0.7774
2.5042,-9.0021,-0.7560
2.5083,-9.0023,-0.7623
2.5125,-9.0032,-0.7686
2.5167,-9.0015,-0.7739
2.5208,-8.9945,-0.7784
2.5250,-8.9815,-0.7572
2.5292,-8.9814,-0.7635
2.5333,-8.9848,-0.7690
2.5375,-8.9873,-0.7748
2.5417,-8.9862,-0.7802
2.5458,-8.9765,-0.7585
2.5500,-8.9783,-0.7647
2.5542,-8.9827,-0.7699
2.5583,-8.9847,-0.7747
2.5625,-8.9851,-0.7803
2.5667,-8.9770,-0.7602
2.5708,-8.9793,-0.7663
2.5750,-8.9834,-0.7714
2.5792,-8.9848,-0.7763
2.5833,-8.9821,-0.7815
2.5875,-8.9719,-0.7619
2.5917,-8.9724,-0.7680
2.5958,-8.9752,-0.7733
2.6000,-8.9758,-0.7782
2.6042,-8.9720,-0.7830
2.6083,-8.9614,-0.7641
2.6125,-8.9614,-0.7703
2.6167,-8.9637,-0.7756
2.6208,-8.9639,-0.7806
2.6250,-8.9600,-0.7854
2.6292,-8.9491,-0.7666
2.6333,-8.9489,-0.7728
2.6375,-8.9510,-0.7782
2.6417,-8.9512,-0.7832
2.6458,-8.9472,-0.7644
2.6500,-8.9548,-0.7706
2.6542,-8.9646,-0.7758
2.6583,-8.9714,-0.7806
2.6625,-8.9727,-0.7853
2.6667,-8.9671,-0.7661
2.6708,-8.9716,-0.7722
2.6750,-8.9773,-0.7774
2.6792,-8.9819,-0.7831
2.6833,-8.9848,-0.7887
2.6875,-8.9772,-0.7670
2.6917,-8.9792,-0.7731
2.6958,-8.9825,-0.7783
2.7000,-8.9835,-0.7839
2.7042,-8.9825,-0.7894
2.7083,-8.9720,-0.7682
2.7125,-8.9716,-0.7744
2.7167,-8.9730,-0.7797
2.7208,-8.9718,-0.7846
2.7250,-8.9661,-0.7895
2.7292,-8.9537,-0.7705
2.7333,-8.9520,-0.7767
2.7375,-8.9525,-0.7821
2.7417,-8.9509,-0.7871
2.7458,-8.9454,-0.7921
2.7500,-8.9330,-0.7732
2.7542,-8.9311,-0.7794
2.7583,-8.9317,-0.7848
2.7625,-8.9306,-0.7899
2.7667,-8.9253,-0.7709
2.7708,-8.9313,-0.7772
2.7750,-8.9396,-0.7825
2.7792,-8.9452,-0.7873
2.7833,-8.9457,-0.7921
2.7875,-8.9393,-0.7729
2.7917,-8.9430,-0.7791
2.7958,-8.9482,-0.7843
2.8000,-8.9510,-0.7895
2.8042,-8.9519,-0.7951
2.8083,-8.9435,-0.7744
2.8125,-8.9449,-0.7805
2.8167,-8.9477,-0.7858
2.8208,-8.9476,-0.7908
2.8250,-8.9457,-0.7963
2.8292,-8.9351,-0.7762
2.8333,-8.9344,-0.7824
2.8375,-8.9355,-0.7878
2.8417,-8.9341,-0.7928
2.8458,-8.9287,-0.7738
2.8500,-8.9345,-0.7801
2.8542,-8.9407,-0.7863
2.8583,-8.9447,-0.7918
2.8625,-8.9419,-0.7964
2.8667,-8.9317,-0.7746
2.8708,-8.9325,-0.7809
2.8750,-8.9335,-0.7871
2.8792,-8.9331,-0.7928
2.8833,-8.9270,-0.7977
2.8875,-8.9140,-0.7756
2.8917,-8.9115,-0.7821
2.8958,-8.9129,-0.7874
2.9000,-8.9130,-0.7927
2.9042,-8.9116,-0.7983
2.9083,-8.9025,-0.7778
2.9125,-8.9039,-0.7841
2.9167,-8.9075,-0.7894
2.9208,-8.9090,-0.7944
2.9250,-8.9062,-0.7993
2.9292,-8.8964,-0.7802
2.9333,-8.8964,-0.7864
2.9375,-8.8987,-0.7918
2.9417,-8.8991,-0.7969
2.9458,-8.8951,-0.7778
2.9500,-8.9019,-0.7841
2.9542,-8.9110,-0.7893
2.9583,-8.9172,-0.7942
2.9625,-8.9215,-0.7997
2.9667,-8.9172,-0.7795
2.9708,-8.9223,-0.7856
2.9750,-8.9283,-0.7909
2.9792,-8.9330,-0.7966
2.9833,-8.9361,-0.8021
2.9875,-8.9282,-0.7805
2.9917,-8.9296,-0.7867
2.9958,-8.9322,-0.7920
3.0000,-8.9316,-0.7970
3.0042,-8.9261,-0.8021
3.0083,-8.9134,-0.7826
3.0125,-8.9100,-0.7889
3.0167,-8.9092,-0.7943
3.0208,-8.9067,-0.7994
3.0250,-8.9004,-0.7803
3.0292,-8.9043,-0.7867
3.0333,-8.9108,-0.7919
3.0375,-8.9164,-0.7977
3.0417,-8.9204,-0.8032
3.0458,-8.9146,-0.7817
3.0500,-8.9185,-0.7879
3.0542,-8.9236,-0.7931
3.0583,-8.9274,-0.7988
3.0625,-8.9296,-0.8044
3.0667,-8.9214,-0.7830
3.0708,-8.9225,-0.7892
3.0750,-8.9248,-0.7946
3.0792,-8.9240,-0.7996
3.0833,-8.9199,-0.8050
3.0875,-8.9077,-0.7850
3.0917,-8.9044,-0.7914
3.0958,-8.9035,-0.7968
3.1000,-8.9008,-0.8019
3.1042,-8.8942,-0.7827
3.1083,-8.8973,-0.7892
3.1125,-8.9032,-0.7944
3.1167,-8.9068,-0.7994
3.1208,-8.9086,-0.8050
3.1250,-8.9022,-0.7847
3.1292,-8.9055,-0.7909
3.1333,-8.9100,-0.7962
3.1375,-8.9135,-0.8019
3.1417,-8.9152,-0.8074
3.1458,-8.9065,-0.7861
3.1500,-8.9070,-0.7923
3.1542,-8.9088,-0.7977
3.1583,-8.9078,-0.8028
3.1625,-8.9023,-0.8078
3.1667,-8.8897,-0.7886
3.1708,-8.8854,-0.7950
3.1750,-8.8840,-0.8004
3.1792,-8.8812,-0.8056
3.1833,-8.8744,-0.7864
3.1875,-8.8767,-0.7929
3.1917,-8.8821,-0.7981
3.1958,-8.8855,-0.8032
3.2000,-8.8845,-0.8081
3.2042,-8.8769,-0.7888
3.2083,-8.8784,-0.7951
3.2125,-8.8819,-0.8004
3.2167,-8.8830,-0.8055
3.2208,-8.8803,-0.8105
3.2250,-8.8704,-0.7912
3.2292,-8.8689,-0.7975
3.2333,-8.8699,-0.8029
3.2375,-8.8691,-0.8081
3.2417,-8.8642,-0.7888
3.2458,-8.8685,-0.7952
3.2500,-8.8755,-0.8004
3.2542,-8.8804,-0.8056
3.2583,-8.8836,-0.8111
3.2625,-8.8782,-0.7906
3.2667,-8.8819,-0.7968
3.2708,-8.8868,-0.8021
3.2750,-8.8905,-0.8078
3.2792,-8.8925,-0.8133
3.2833,-8.8843,-0.7922
3.2875,-8.8845,-0.7984
3.2917,-8.8862,-0.8038
3.2958,-8.8852,-0.8089
3.3000,-8.8798,-0.7895
3.3042,-8.8835,-0.7959
3.3083,-8.8873,-0.8020
3.3125,-8.8896,-0.8076
3.3167,-8.8885,-0.8129
3.3208,-8.8791,-0.7905
3.3250,-8.8785,-0.7970
3.3292,-8.8808,-0.8023
3.3333,-8.8822,-0.8081
3.3375,-8.8820,-0.8136
3.3417,-8.8727,-0.7924
3.3458,-8.8719,-0.7987
3.3500,-8.8733,-0.8041
3.3542,-8.8726,-0.8092
3.3583,-8.8679,-0.7899
3.3625,-8.8663,-0.7969
3.3667,-8.8635,-0.8026
3.3708,-8.8592,-0.8082
3.3750,-8.8520,-0.8133
3.3792,-8.8395,-0.7903
3.3833,-8.8359,-0.7971
3.3875,-8.8335,-0.8030
3.3917,-8.8299,-0.8086
3.3958,-8.8244,-0.8141
3.4000,-8.8130,-0.7919
3.4042,-8.8105,-0.7985
3.4083,-8.8130,-0.8038
3.4125,-8.8154,-0.8090
3.4167,-8.8151,-0.8141
3.4208,-8.8084,-0.7949
3.4250,-8.8102,-0.8012
3.4292,-8.8149,-0.8066
3.4333,-8.8181,-0.8117
3.4375,-8.8171,-0.7925
3.4417,-8.8253,-0.7989
3.4458,-8.8361,-0.8041
3.4500,-8.8443,-0.8090
3.4542,-8.8485,-0.8141
3.4583,-8.8448,-0.7944
3.4625,-8.8501,-0.8006
3.4667,-8.8567,-0.8059
3.4708,-8.8601,-0.8109
3.4750,-8.8617,-0.8163
3.4792,-8.8543,-0.7963
3.4833,-8.8550,-0.8026
3.4875,-8.8574,-0.8079
3.4917,-8.8574,-0.8131
3.4958,-8.8528,-0.7937
3.5000,-8.8570,-0.8001
3.5042,-8.8636,-0.8054
3.5083,-8.8685,-0.8110
3.5125,-8.8715,-0.8165
3.5167,-8.8655,-0.7954
3.5208,-8.8680,-0.8016
3.5250,-8.8719,-0.8070
3.5292,-8.8735,-0.8124
3.5333,-8.8733,-0.8178
3.5375,-8.8639,-0.7973
3.5417,-8.8624,-0.8036
3.5458,-8.8629,-0.8090
3.5500,-8.8613,-0.8142
3.5542,-8.8555,-0.7947
3.5583,-8.8581,-0.8012
3.5625,-8.8636,-0.8064
3.5667,-8.8682,-0.8122
3.5708,-8.8711,-0.8177
3.5750,-8.8647,-0.7965
3.5792,-8.8667,-0.8027
3.5833,-8.8702,-0.8081
3.5875,-8.8718,-0.8137
3.5917,-8.8715,-0.8192
3.5958,-8.8620,-0.7983
3.6000,-8.8599,-0.8047
3.6042,-8.8600,-0.8101
3.6083,-8.8581,-0.8153
3.6125,-8.8520,-0.7958
3.6167,-8.8541,-0.8023
3.6208,-8.8591,-0.8076
3.6250,-8.8633,-0.8133
3.6292,-8.8658,-0.8189
3.6333,-8.8593,-0.7977
3.6375,-8.8609,-0.8040
3.6417,-8.8641,-0.8093
3.6458,-8.8652,-0.8147
3.6500,-8.8646,-0.8201
3.6542,-8.8550,-0.7997
3.6583,-8.8527,-0.8061
3.6625,-8.8525,-0.8115
3.6667,-8.8505,-0.8167
3.6708,-8.8443,-0.7973
3.6750,-8.8462,-0.8038
3.6792,-8.8511,-0.8091
3.6833,-8.8540,-0.8144
3.6875,-8.8551,-0.8199
3.6917,-8.8482,-0.7994
3.6958,-8.8492,-0.8057
3.7000,-8.8522,-0.8111
3.7042,-8.8527,-0.8162
3.7083,-8.8515,-0.8217
3.7125,-8.8419,-0.8016
3.7167,-8.8394,-0.8080
3.7208,-8.8392,-0.8134
3.7250,-8.8375,-0.8187
3.7292,-8.8316,-0.7992
3.7333,-8.8334,-0.8058
3.7375,-8.8383,-0.8110
3.7417,-8.8415,-0.8162
3.7458,-8.8430,-0.8217
3.7500,-8.8365,-0.8016
3.7542,-8.8376,-0.8079
3.7583,-8.8407,-0.8132
3.7625,-8.8415,-0.8184
3.7667,-8.8380,-0.7989
3.7708,-8.8375,-0.8059
3.7750,-8.8359,-0.8115
3.7792,-8.8326,-0.8170
3.7833,-8.8278,-0.8226
3.7875,-8.8166,-0.7994
3.7917,-8.8131,-0.8061
3.7958,-8.8118,-0.8119
3.8000,-8.8095,-0.8175
3.8042,-8.8056,-0.8230
3.8083,-8.7951,-0.8013
3.8125,-8.7921,-0.8079
3.8167,-8.7937,-0.8132
3.8208,-8.7949,-0.8185
3.8250,-8.7931,-0.7992
3.8292,-8.8000,-0.8056
3.8333,-8.8068,-0.8116
3.8375,-8.8120,-0.8171
3.8417,-8.8155,-0.8226
3.8458,-8.8106,-0.8001
3.8500,-8.8139,-0.8065
3.8542,-8.8200,-0.8117
3.8583,-8.8252,-0.8175
3.8625,-8.8287,-0.8230
3.8667,-8.8228,-0.8018
3.8708,-8.8245,-0.8081
3.8750,-8.8281,-0.8135
3.8792,-8.8295,-0.8186
3.8833,-8.8265,-0.7992
3.8875,-8.8319,-0.8056
3.8917,-8.8371,-0.8116
3.8958,-8.8408,-0.8171
3.9000,-8.8428,-0.8226
3.9042,-8.8359,-0.8002
3.9083,-8.8369,-0.8067
3.9125,-8.8404,-0.8120
3.9167,-8.8424,-0.8176
3.9208,-8.8428,-0.8231
3.9250,-8.8342,-0.8022
3.9292,-8.8328,-0.8086
3.9333,-8.8338,-0.8140
3.9375,-8.8330,-0.8192
3.9417,-8.8282,-0.7998
3.9458,-8.8314,-0.8063
3.9500,-8.8376,-0.8115
3.9542,-8.8429,-0.8173
3.9583,-8.8466,-0.8228
3.9625,-8.8411,-0.8016
3.9667,-8.8433,-0.8079
3.9708,-8.8471,-0.8132
3.9750,-8.8481,-0.8184
3.9792,-8.8473,-0.8239
3.9833,-8.8379,-0.8037
3.9875,-8.8354,-0.8101
3.9917,-8.8352,-0.8155
3.9958,-8.8334,-0.8207
4.0000,-8.8274,-0.8013
4.0042,-8.8290,-0.8079
4.0083,-8.8339,-0.8131
4.0125,-8.8369,-0.8183
4.0167,-8.8383,-0.8238
4.0208,-8.8317,-0.8036
4.0250,-8.8324,-0.8099
4.0292,-8.8351,-0.8152
4.0333,-8.8356,-0.8204
4.0375,-8.8320,-0.8012
4.0417,-8.8313,-0.8082
4.0458,-8.8294,-0.8138
4.0500,-8.8259,-0.8193
4.0542,-8.8195,-0.8243
4.0583,-8.8078,-0.8017
4.0625,-8.8035,-0.8085
4.0667,-8.8021,-0.8139
4.0708,-8.7998,-0.8196
4.0750,-8.7960,-0.8251
4.0792,-8.7859,-0.8039
4.0833,-8.7830,-0.8104
4.0875,-8.7845,-0.8157
4.0917,-8.7857,-0.8210
4.0958,-8.7838,-0.8017
4.1000,-8.7902,-0.8082
4.1042,-8.7965,-0.8141
4.1083,-8.8013,-0.8196
4.1125,-8.8043,-0.8251
4.1167,-8.7990,-0.8027
4.1208,-8.8015,-0.8091
4.1250,-8.8070,-0.8144
4.1292,-8.8106,-0.8197
4.1333,-8.8125,-0.8251
4.1375,-8.8061,-0.8049
4.1417,-8.8069,-0.8112
4.1458,-8.8100,-0.8166
4.1500,-8.8113,-0.8218
4.1542,-8.8082,-0.8023
4.1583,-8.8131,-0.8088
4.1625,-8.8208,-0.8140
4.1667,-8.8276,-0.8197
4.1708,-8.8327,-0.8252
4.1750,-8.8284,-0.8040
4.1792,-8.8315,-0.8103
4.1833,-8.8361,-0.8156
4.1875,-8.8379,-0.8207
4.1917,-8.8379,-0.8262
4.1958,-8.8291,-0.8062
4.2000,-8.8269,-0.8125
4.2042,-8.8269,-0.8179
4.2083,-8.8253,-0.8232
4.2125,-8.8193,-0.8038
4.2167,-8.8206,-0.8103
4.2208,-8.8251,-0.8156
4.2250,-8.8279,-0.8208
4.2292,-8.8281,-0.8262
4.2333,-8.8207,-0.8062
4.2375,-8.8202,-0.8126
4.2417,-8.8220,-0.8179
4.2458,-8.8220,-0.8232
4.2500,-8.8181,-0.8037
4.2542,-8.8209,-0.8103
4.2583,-8.8231,-0.8162
4.2625,-8.8238,-0.8217
4.2667,-8.8228,-0.8272
4.2708,-8.8141,-0.8048
4.2750,-8.8125,-0.8114
4.2792,-8.8145,-0.8167
4.2833,-8.8158,-0.8224
4.2875,-8.8155,-0.8279
4.2917,-8.8069,-0.8071
4.2958,-8.8050,-0.8135
4.3000,-8.8060,-0.8189
4.3042,-8.8056,-0.8242
4.3083,-8.8014,-0.8047
4.3125,-8.8047,-0.8113
4.3167,-8.8111,-0.8165
4.3208,-8.8160,-0.8220
4.3250,-8.8191,-0.8274
4.3292,-8.8138,-0.8067
4.3333,-8.8155,-0.8131
4.3375,-8.8193,-0.8184
4.3417,-8.8207,-0.8236
4.3458,-8.8180,-0.8048
4.3500,-8.8180,-0.8117
4.3542,-8.8169,-0.8173
4.3583,-8.8144,-0.8224
4.3625,-8.8090,-0.8272
4.3667,-8.7982,-0.8049
4.3708,-8.7945,-0.8117
4.3750,-8.7959,-0.8170
4.3792,-8.7967,-0.8228
4.3833,-8.7961,-0.8283
4.3875,-8.7879,-0.8073
4.3917,-8.7867,-0.8138
4.3958,-8.7888,-0.8191
4.4000,-8.7898,-0.8244
4.4042,-8.7872,-0.8050
4.4083,-8.7924,-0.8115
4.4125,-8.7986,-0.8173
4.4167,-8.8035,-0.8228
4.4208,-8.8068,-0.8283
4.4250,-8.8013,-0.8063
4.4292,-8.8031,-0.8127
4.4333,-8.8074,-0.8180
4.4375,-8.8098,-0.8232
4.4417,-8.8105,-0.8286
4.4458,-8.8030,-0.8086
4.4500,-8.8020,-0.8150
4.4542,-8.8035,-0.8204
4.4583,-8.8034,-0.8257
4.4625,-8.7991,-0.8062
4.4667,-8.8018,-0.8127
4.4708,-8.8078,-0.8180
4.4750,-8.8121,-0.8232
4.4792,-8.8146,-0.8286
4.4833,-8.8091,-0.8085
4.4875,-8.8103,-0.8148
4.4917,-8.8135,-0.8202
4.4958,-8.8146,-0.8254
4.5000,-8.8114,-0.8058
4.5042,-8.8156,-0.8123
4.5083,-8.8195,-0.8182
4.5125,-8.8218,-0.8237
4.5167,-8.8224,-0.8292
4.5208,-8.8147,-0.8070
4.5250,-8.8141,-0.8136
4.5292,-8.8165,-0.8188
4.5333,-8.8181,-0.8246
4.5375,-8.8181,-0.8301
4.5417,-8.8093,-0.8092
4.5458,-8.8068,-0.8157
4.5500,-8.8071,-0.8210
4.5542,-8.8060,-0.8263
4.5583,-8.8009,-0.8069
4.5625,-8.8029,-0.8135
4.5667,-8.8082,-0.8187
4.5708,-8.8118,-0.8240
4.5750,-8.8138,-0.8295
4.5792,-8.8077,-0.8091
4.5833,-8.8083,-0.8155
4.5875,-8.8111,-0.8209
4.5917,-8.8119,-0.8261
4.5958,-8.8085,-0.8065
4.6000,-8.8082,-0.8135
4.6042,-8.8067,-0.8191
4.6083,-8.8036,-0.8246
4.6125,-8.7989,-0.8301
4.6167,-8.7880,-0.8074
4.6208,-8.7840,-0.8141
4.6250,-8.7851,-0.8194
4.6292,-8.7858,-0.8252
4.6333,-8.7849,-0.8307
4.6375,-8.7766,-0.8098
4.6417,-8.7748,-0.8163
4.6458,-8.7767,-0.8217
4.6500,-8.7777,-0.8270
4.6542,-8.7749,-0.8075
4.6583,-8.7794,-0.8141
4.6625,-8.7872,-0.8193
4.6667,-8.7932,-0.8244
4.6708,-8.7976,-0.8299
4.6750,-8.7939,-0.8097
4.6792,-8.7971,-0.8161
4.6833,-8.8022,-0.8214
4.6875,-8.8047,-0.8265
4.6917,-8.8028,-0.8069
4.6958,-8.8039,-0.8138
4.7000,-8.8037,-0.8195
4.7042,-8.8019,-0.8250
4.7083,-8.7986,-0.8304
4.7125,-8.7886,-0.8076
4.7167,-8.7856,-0.8143
4.7208,-8.7852,-0.8198
4.7250,-8.7838,-0.8255
4.7292,-8.7809,-0.8309
4.7333,-8.7713,-0.8099
4.7375,-8.7682,-0.8164
4.7417,-8.7693,-0.8218
4.7458,-8.7701,-0.8271
4.7500,-8.7674,-0.8077
4.7542,-8.7722,-0.8142
4.7583,-8.7804,-0.8194
4.7625,-8.7878,-0.8251
4.7667,-8.7935,-0.8306
4.7708,-8.7904,-0.8096
4.7750,-8.7943,-0.8159
4.7792,-8.8000,-0.8212
4.7833,-8.8033,-0.8263
4.7875,-8.8021,-0.8072
4.7917,-8.8038,-0.8141
4.7958,-8.8042,-0.8197
4.8000,-8.8031,-0.8252
4.8042,-8.7987,-0.8299
4.8083,-8.7886,-0.8075
4.8125,-8.7853,-0.8142
4.8167,-8.7869,-0.8195
4.8208,-8.7881,-0.8253
4.8250,-8.7877,-0.8308
4.8292,-8.7799,-0.8099
4.8333,-8.7787,-0.8164
4.8375,-8.7810,-0.8217
4.8417,-8.7822,-0.8270
4.8458,-8.7795,-0.8075
4.8500,-8.7842,-0.8140
4.8542,-8.7920,-0.8192
4.8583,-8.7991,-0.8249
4.8625,-8.8045,-0.8304
4.8667,-8.8008,-0.8093
4.8708,-8.8042,-0.8157
4.8750,-8.8093,-0.8210
4.8792,-8.8117,-0.8262
4.8833,-8.8123,-0.8316
4.8875,-8.8041,-0.8115
4.8917,-8.8020,-0.8179
4.8958,-8.8022,-0.8233
4.9000,-8.8010,-0.8286
4.9042,-8.7954,-0.8091
4.9083,-8.7963,-0.8157
4.9125,-8.8007,-0.8210
4.9167,-8.8036,-0.8262
4.9208,-8.8027,-0.8314
4.9250,-8.7952,-0.8118
4.9292,-8.7937,-0.8183
4.9333,-8.7952,-0.8236
4.9375,-8.7954,-0.8290
4.9417,-8.7916,-0.8094
4.9458,-8.7945,-0.8160
4.9500,-8.8008,-0.8212
4.9542,-8.8054,-0.8266
4.9583,-8.8083,-0.8321
4.9625,-8.8030,-0.8115
4.9667,-8.8042,-0.8179
4.9708,-8.8074,-0.8233
4.9750,-8.8083,-0.8285
4.9792,-8.8053,-0.8101
4.9833,-8.8049,-0.8170
4.9875,-8.8048,-0.8225
4.9917,-8.8026,-0.8273
4.9958,-8.7973,-0.8324
5.0000,-8.7863,-0.8099
5.0042,-8.7815,-0.8167
5.0083,-8.7819,-0.8219
5.0125,-8.7819,-0.8278
5.0167,-8.7804,-0.8333
5.0208,-8.7718,-0.8126
5.0250,-8.7693,-0.8191
5.0292,-8.7706,-0.8244
5.0333,-8.7712,-0.8298
5.0375,-8.7681,-0.8103
5.0417,-8.7718,-0.8168
5.0458,-8.7790,-0.8220
5.0500,-8.7847,-0.8273
5.0542,-8.7886,-0.8327
5.0583,-8.7846,-0.8126
5.0625,-8.7871,-0.8189
5.0667,-8.7915,-0.8242
5.0708,-8.7938,-0.8294
5.0750,-8.7918,-0.8098
5.0792,-8.7927,-0.8168
5.0833,-8.7925,-0.8224
5.0875,-8.7906,-0.8279
5.0917,-8.7872,-0.8333
5.0958,-8.7772,-0.8106
5.1000,-8.7737,-0.8174
5.1042,-8.7751,-0.8226
5.1083,-8.7759,-0.8284
5.1125,-8.7753,-0.8339
5.1167,-8.7672,-0.8132
5.1208,-8.7651,-0.8197
5.1250,-8.7667,-0.8250
5.1292,-8.7675,-0.8304
5.1333,-8.7646,-0.8109
5.1375,-8.7684,-0.8175
5.1417,-8.7757,-0.8227
5.1458,-8.7815,-0.8279
5.1500,-8.7856,-0.8334
5.1542,-8.7816,-0.8132
5.1583,-8.7839,-0.8196
5.1625,-8.7882,-0.8249
5.1667,-8.7903,-0.8301
5.1708,-8.7882,-0.8106
5.1750,-8.7931,-0.8171
5.1792,-8.7976,-0.8229
5.1833,-8.8005,-0.8284
5.1875,-8.8018,-0.8339
5.1917,-8.7947,-0.8119
5.1958,-8.7941,-0.8184
5.2000,-8.7964,-0.8237
5.2042,-8.7973,-0.8290
5.2083,-8.7965,-0.8345
5.2125,-8.7879,-0.8144
5.2167,-8.7849,-0.8209
5.2208,-8.7849,-0.8263
5.2250,-8.7838,-0.8317
5.2292,-8.7788,-0.8122
5.2333,-8.7799,-0.8188
5.2375,-8.7847,-0.8240
5.2417,-8.7883,-0.8293
5.2458,-8.7882,-0.8344
5.2500,-8.7812,-0.8148
5.2542,-8.7800,-0.8213
5.2583,-8.7817,-0.8266
5.2625,-8.7822,-0.8320
5.2667,-8.7787,-0.8124
5.2708,-8.7817,-0.8190
5.2750,-8.7879,-0.8242
5.2792,-8.7926,-0.8296
5.2833,-8.7956,-0.8350
5.2875,-8.7906,-0.8147
5.2917,-8.7917,-0.8211
5.2958,-8.7949,-0.8264
5.3000,-8.7960,-0.8317
5.3042,-8.7929,-0.8120
5.3083,-8.7927,-0.8189
5.3125,-8.7913,-0.8246
5.3167,-8.7884,-0.8301
5.3208,-8.7838,-0.8355
5.3250,-8.7732,-0.8131
5.3292,-8.7687,-0.8199
5.3333,-8.7692,-0.8251
5.3375,-8.7693,-0.8310
5.3417,-8.7678,-0.8364
5.3458,-8.7591,-0.8157
5.3500,-8.7560,-0.8223
5.3542,-8.7569,-0.8276
5.3583,-8.7572,-0.8330
5.3625,-8.7538,-0.8135
5.3667,-8.7568,-0.8201
5.3708,-8.7634,-0.8254
5.3750,-8.7688,-0.8306
5.3792,-8.7703,-0.8358
5.3833,-8.7651,-0.8161
5.3875,-8.7657,-0.8226
5.3917,-8.7692,-0.8279
5.3958,-8.7712,-0.8332
5.4000,-8.7690,-0.8136
5.4042,-8.7734,-0.8201
5.4083,-8.7808,-0.8253
5.4125,-8.7869,-0.8310
5.4167,-8.7914,-0.8364
5.4208,-8.7870,-0.8155
5.4250,-8.7888,-0.8219
5.4292,-8.7925,-0.8273
5.4333,-8.7939,-0.8325
5.4375,-8.7912,-0.8130
5.4417,-8.7914,-0.8200
5.4458,-8.7905,-0.8256
5.4500,-8.7879,-0.8311
5.4542,-8.7838,-0.8365
5.4583,-8.7731,-0.8137
5.4625,-8.7685,-0.8205
5.4667,-8.7688,-0.8258
5.4708,-8.7687,-0.8316
5.4750,-8.7671,-0.8371
5.4792,-8.7584,-0.8165
5.4833,-8.7553,-0.8231
5.4875,-8.7561,-0.8284
5.4917,-8.7564,-0.8338
5.4958,-8.7530,-0.8143
5.5000,-8.7558,-0.8209
5.5042,-8.7623,-0.8261
5.5083,-8.7676,-0.8314
5.5125,-8.7690,-0.8365
5.5167,-8.7635,-0.8168
5.5208,-8.7638,-0.8233
5.5250,-8.7670,-0.8286
5.5292,-8.7687,-0.8339
5.5333,-8.7665,-0.8143
5.5375,-8.7706,-0.8209
5.5417,-8.7780,-0.8261
5.5458,-8.7846,-0.8318
5.5500,-8.7895,-0.8373
5.5542,-8.7854,-0.8163
5.5583,-8.7873,-0.8227
5.5625,-8.7911,-0.8280
5.5667,-8.7926,-0.8333
5.5708,-8.7898,-0.8135
5.5750,-8.7900,-0.8205
5.5792,-8.7890,-0.8261
5.5833,-8.7864,-0.8316
5.5875,-8.7822,-0.8371
5.5917,-8.7718,-0.8146
5.5958,-8.7673,-0.8214
5.6000,-8.7677,-0.8267
5.6042,-8.7677,-0.8325
5.6083,-8.7662,-0.8380
5.6125,-8.7573,-0.8173
5.6167,-8.7538,-0.8239
5.6208,-8.7542,-0.8292
5.6250,-8.7542,-0.8346
5.6292,-8.7505,-0.8151
5.6333,-8.7529,-0.8218
5.6375,-8.7591,-0.8270
5.6417,-8.7642,-0.8323
5.6458,-8.7660,-0.8374
5.6500,-8.7608,-0.8178
5.6542,-8.7612,-0.8242
5.6583,-8.7643,-0.8296
5.6625,-8.7660,-0.8349
5.6667,-8.7636,-0.8153
5.6708,-8.7674,-0.8219
5.6750,-8.7743,-0.8271
5.6792,-8.7796,-0.8324
5.6833,-8.7831,-0.8378
5.6875,-8.7786,-0.8176
5.6917,-8.7800,-0.8240
5.6958,-8.7834,-0.8293
5.7000,-8.7849,-0.8346
5.7042,-8.7820,-0.8149
5.7083,-8.7827,-0.8217
5.7125,-8.7822,-0.8274
5.7167,-8.7802,-0.8329
5.7208,-8.7766,-0.8383
5.7250,-8.7666,-0.8161
5.7292,-8.7623,-0.8228
5.7333,-8.7628,-0.8281
5.7375,-8.7630,-0.8337
5.7417,-8.7618,-0.8392
5.7458,-8.7533,-0.8190
5.7500,-8.7502,-0.8255
5.7542,-8.7509,-0.8309
5.7583,-8.7511,-0.8363
5.7625,-8.7473,-0.8167
5.7667,-8.7491,-0.8234
5.7708,-8.7549,-0.8286
5.7750,-8.7595,-0.8339
5.7792,-8.7606,-0.8391
5.7833,-8.7549,-0.8195
5.7875,-8.7544,-0.8261
5.7917,-8.7570,-0.8314
5.7958,-8.7585,-0.8368
5.8000,-8.7559,-0.8172
5.8042,-8.7590,-0.8238
5.8083,-8.7655,-0.8290
5.8125,-8.7705,-0.8343
5.8167,-8.7715,-0.8394
5.8208,-8.7657,-0.8198
5.8250,-8.7651,-0.8263
5.8292,-8.7674,-0.8316
5.8333,-8.7684,-0.8370
5.8375,-8.7654,-0.8173
5.8417,-8.7683,-0.8239
5.8458,-8.7746,-0.8292
5.8500,-8.7802,-0.8349
5.8542,-8.7841,-0.8404
5.8583,-8.7793,-0.8194
5.8625,-8.7799,-0.8259
5.8667,-8.7827,-0.8312
5.8708,-8.7836,-0.8365
5.8750,-8.7803,-0.8168
5.8792,-8.7799,-0.8237
5.8833,-8.7783,-0.8293
5.8875,-8.7752,-0.8348
5.8917,-8.7705,-0.8403
5.8958,-8.7599,-0.8181
5.9000,-8.7547,-0.8249
5.9042,-8.7546,-0.8302
5.9083,-8.7544,-0.8359
5.9125,-8.7513,-0.8173
5.9167,-8.7511,-0.8242
5.9208,-8.7534,-0.8292
5.9250,-8.7538,-0.8343
5.9292,-8.7509,-0.8394
5.9333,-8.7425,-0.8171
5.9375,-8.7401,-0.8239
5.9417,-8.7429,-0.8291
5.9458,-8.7452,-0.8349
5.9500,-8.7459,-0.8404
5.9542,-8.7392,-0.8197
5.9583,-8.7380,-0.8262
5.9625,-8.7403,-0.8316
5.9667,-8.7419,-0.8369
5.9708,-8.7397,-0.8174
5.9750,-8.7434,-0.8240
5.9792,-8.7507,-0.8292
5.9833,-8.7566,-0.8345
5.9875,-8.7595,-0.8398
5.9917,-8.7551,-0.8198
5.9958,-8.7561,-0.8263
6.0000,-8.7598,-0.8316
6.0042,-8.7619,-0.8369
6.0083,-8.7598,-0.8172
6.0125,-8.7637,-0.8238
6.0167,-8.7708,-0.8290
6.0208,-8.7765,-0.8347
6.0250,-8.7805,-0.8401
6.0292,-8.7759,-0.8193
6.0333,-8.7769,-0.8258
6.0375,-8.7800,-0.8311
6.0417,-8.7811,-0.8364
6.0458,-8.7781,-0.8167
6.0500,-8.7780,-0.8236
6.0542,-8.7768,-0.8292
6.0583,-8.7740,-0.8347
6.0625,-8.7696,-0.8402
6.0667,-8.7591,-0.8179
6.0708,-8.7540,-0.8247
6.0750,-8.7539,-0.8300
6.0792,-8.7537,-0.8355
6.0833,-8.7511,-0.8180
6.0875,-8.7538,-0.8245
6.0917,-8.7570,-0.8296
6.0958,-8.7586,-0.8345
6.1000,-8.7562,-0.8395
6.1042,-8.7480,-0.8171
6.1083,-8.7455,-0.8239
6.1125,-8.7480,-0.8291
6.1167,-8.7501,-0.8347
6.1208,-8.7509,-0.8402
6.1250,-8.7443,-0.8199
6.1292,-8.7431,-0.8264
6.1333,-8.7453,-0.8317
6.1375,-8.7467,-0.8371
6.1417,-8.7442,-0.8175
6.1458,-8.7475,-0.8241
6.1500,-8.7545,-0.8294
6.1542,-8.7601,-0.8346
6.1583,-8.7638,-0.8401
6.1625,-8.7596,-0.8200
6.1667,-8.7608,-0.8264
6.1708,-8.7643,-0.8317
6.1750,-8.7662,-0.8370
6.1792,-8.7637,-0.8174
6.1833,-8.7672,-0.8240
6.1875,-8.7737,-0.8292
6.1917,-8.7787,-0.8346
6.1958,-8.7820,-0.8401
6.2000,-8.7771,-0.8196
6.2042,-8.7776,-0.8261
6.2083,-8.7804,-0.8314
6.2125,-8.7812,-0.8367
6.2167,-8.7778,-0.8170
6.2208,-8.7795,-0.8236
6.2250,-8.7805,-0.8294
6.2292,-8.7799,-0.8349
6.2333,-8.7777,-0.8403
6.2375,-8.7686,-0.8185
6.2417,-8.7650,-0.8252
6.2458,-8.7655,-0.8305
6.2500,-8.7655,-0.8363
6.2542,-8.7620,-0.8174
6.2583,-8.7613,-0.8243
6.2625,-8.7596,-0.8299
6.2667,-8.7570,-0.8346
6.2708,-8.7523,-0.8396
6.2750,-8.7426,-0.8173
6.2792,-8.7384,-0.8242
6.2833,-8.7397,-0.8294
6.2875,-8.7413,-0.8349
6.2917,-8.7416,-0.8405
6.2958,-8.7350,-0.8203
6.3000,-8.7338,-0.8268
6.3042,-8.7363,-0.8322
6.3083,-8.7382,-0.8375
6.3125,-8.7360,-0.8180
6.3167,-8.7398,-0.8246
6.3208,-8.7471,-0.8298
6.3250,-8.7531,-0.8351
6.3292,-8.7553,-0.8402
6.3333,-8.7505,-0.8205
6.3375,-8.7511,-0.8270
6.3417,-8.7545,-0.8323
6.3458,-8.7566,-0.8377
6.3500,-8.7545,-0.8181
6.3542,-8.7583,-0.8247
6.3583,-8.7653,-0.8299
6.3625,-8.7707,-0.8351
6.3667,-8.7744,-0.8406
6.3708,-8.7700,-0.8204
6.3750,-8.7709,-0.8268
6.3792,-8.7740,-0.8322
6.3833,-8.7751,-0.8375
6.3875,-8.7721,-0.8178
6.3917,-8.7751,-0.8244
6.3958,-8.7775,-0.8302
6.4000,-8.7784,-0.8357
6.4042,-8.7777,-0.8411
6.4083,-8.7694,-0.8194
6.4125,-8.7665,-0.8260
6.4167,-8.7674,-0.8313
6.4208,-8.7674,-0.8367
6.4250,-8.7642,-0.8174
6.4292,-8.7640,-0.8244
6.4333,-8.7626,-0.8300
6.4375,-8.7597,-0.8354
6.4417,-8.7552,-0.8409
6.4458,-8.7449,-0.8181
6.4500,-8.7402,-0.8250
6.4542,-8.7408,-0.8302
6.4583,-8.7417,-0.8357
6.4625,-8.7399,-0.8224
6.4667,-8.7435,-0.8208
6.4708,-8.7503,-0.8266
6.4750,-8.7562,-0.8323
6.4792,-8.7604,-0.8377
6.4833,-8.7581,-0.8224
6.4875,-8.7611,-0.8242
6.4917,-8.7651,-0.8288
6.4958,-8.7670,-0.8342
6.5000,-8.7655,-0.8392
6.5042,-8.7582,-0.8208
6.5083,-8.7547,-0.8274
6.5125,-8.7519,-0.8328
6.5167,-8.7477,-0.8381
6.5208,-8.7407,-0.8178
6.5250,-8.7380,-0.8247
6.5292,-8.7370,-0.8300
6.5333,-8.7351,-0.8353
6.5375,-8.7317,-0.8408
6.5417,-8.7233,-0.8202
6.5458,-8.7204,-0.8268
6.5500,-8.7220,-0.8321
6.5542,-8.7239,-0.8375
6.5583,-8.7226,-0.8179
6.5625,-8.7278,-0.8245
6.5667,-8.7352,-0.8299
6.5708,-8.7416,-0.8355
6.5750,-8.7464,-0.8409
6.5792,-8.7430,-0.8197
6.5833,-8.7456,-0.8262
6.5875,-8.7508,-0.8315
6.5917,-8.7543,-0.8367
6.5958,-8.7537,-0.8175
6.6000,-8.7560,-0.8244
6.6042,-8.7572,-0.8300
6.6083,-8.7567,-0.8354
6.6125,-8.7534,-0.8402
6.6167,-8.7446,-0.8181
6.6208,-8.7413,-0.8249
6.6250,-8.7431,-0.8301
6.6292,-8.7447,-0.8356
6.6333,-8.7450,-0.8411
6.6375,-8.7381,-0.8210
6.6417,-8.7365,-0.8275
6.6458,-8.7383,-0.8328
6.6500,-8.7396,-0.8382
6.6542,-8.7369,-0.8187
6.6583,-8.7398,-0.8253
6.6625,-8.7465,-0.8306
6.6667,-8.7520,-0.8359
6.6708,-8.7538,-0.8410
6.6750,-8.7486,-0.8214
6.6792,-8.7484,-0.8279
6.6833,-8.7512,-0.8332
6.6875,-8.7528,-0.8386
6.6917,-8.7503,-0.8190
6.6958,-8.7534,-0.8256
6.7000,-8.7600,-0.8308
6.7042,-8.7651,-0.8361
6.7083,-8.7678,-0.8415
6.7125,-8.7628,-0.8215
6.7167,-8.7628,-0.8280
6.7208,-8.7655,-0.8333
6.7250,-8.7665,-0.8386
6.7292,-8.7634,-0.8190
6.7333,-8.7660,-0.8256
6.7375,-8.7719,-0.8308
6.7417,-8.7770,-0.8365
6.7458,-8.7805,-0.8420
6.7500,-8.7755,-0.8212
6.7542,-8.7757,-0.8277
6.7583,-8.7782,-0.8330
6.7625,-8.7788,-0.8383
6.7667,-8.7753,-0.8185
6.7708,-8.7767,-0.8252
6.7750,-8.7773,-0.8310
6.7792,-8.7765,-0.8364
6.7833,-8.7740,-0.8419
6.7875,-8.7646,-0.8201
6.7917,-8.7605,-0.8268
6.7958,-8.7606,-0.8321
6.8000,-8.7603,-0.8377
6.8042,-8.7568,-0.8189
6.8083,-8.7562,-0.8258
6.8125,-8.7545,-0.8314
6.8167,-8.7520,-0.8366
6.8208,-8.7469,-0.8415
6.8250,-8.7367,-0.8190
6.8292,-8.7317,-0.8258
6.8333,-8.7318,-0.8311
6.8375,-8.7327,-0.8365
6.8417,-8.7324,-0.8421
6.8458,-8.7256,-0.8222
6.8500,-8.7239,-0.8287
6.8542,-8.7261,-0.8340
6.8583,-8.7279,-0.8395
6.8625,-8.7257,-0.8199
6.8667,-8.7291,-0.8265
6.8708,-8.7362,-0.8317
6.8750,-8.7422,-0.8371
6.8792,-8.7446,-0.8422
6.8833,-8.7400,-0.8226
6.8875,-8.7403,-0.8291
6.8917,-8.7436,-0.8344
6.8958,-8.7457,-0.8398
6.9000,-8.7437,-0.8202
6.9042,-8.7472,-0.8268
6.9083,-8.7541,-0.8321
6.9125,-8.7596,-0.8374
6.9167,-8.7611,-0.8425
6.9208,-8.7557,-0.8228
6.9250,-8.7551,-0.8293
6.9292,-8.7576,-0.8346
6.9333,-8.7587,-0.8400
6.9375,-8.7557,-0.8203
6.9417,-8.7583,-0.8270
6.9458,-8.7642,-0.8322
6.9500,-8.7686,-0.8376
6.9542,-8.7714,-0.8430
6.9583,-8.7663,-0.8228
6.9625,-8.7663,-0.8292
6.9667,-8.7687,-0.8346
6.9708,-8.7694,-0.8399
6.9750,-8.7659,-0.8201
6.9792,-8.7680,-0.8268
6.9833,-8.7695,-0.8325
6.9875,-8.7695,-0.8380
6.9917,-8.7678,-0.8435
6.9958,-8.7591,-0.8219
7.0000,-8.7555,-0.8286
7.0042,-8.7559,-0.8339
7.0083,-8.7559,-0.8393
7.0125,-8.7526,-0.8196
7.0167,-8.7524,-0.8266
7.0208,-8.7510,-0.8322
7.0250,-8.7481,-0.8376
7.0292,-8.7436,-0.8431
7.0333,-8.7337,-0.8210
7.0375,-8.7290,-0.8278
7.0417,-8.7292,-0.8331
7.0458,-8.7296,-0.8388
7.0500,-8.7275,-0.8204
7.0542,-8.7284,-0.8273
7.0583,-8.7313,-0.8322
7.0625,-8.7323,-0.8374
7.0667,-8.7299,-0.8424
7.0708,-8.7221,-0.8199
7.0750,-8.7198,-0.8267
7.0792,-8.7227,-0.8319
7.0833,-8.7259,-0.8374
7.0875,-8.7278,-0.8429
7.0917,-8.7226,-0.8228
7.0958,-8.7225,-0.8293
7.1000,-8.7258,-0.8347
7.1042,-8.7283,-0.8400
7.1083,-8.7267,-0.8205
7.1125,-8.7306,-0.8271
7.1167,-8.7382,-0.8323
7.1208,-8.7444,-0.8376
7.1250,-8.7469,-0.8427
7.1292,-8.7422,-0.8231
7.1333,-8.7423,-0.8296
7.1375,-8.7454,-0.8349
7.1417,-8.7472,-0.8403
7.1458,-8.7449,-0.8207
7.1500,-8.7481,-0.8273
7.1542,-8.7547,-0.8325
7.1583,-8.7598,-0.8378
7.1625,-8.7630,-0.8433
7.1667,-8.7584,-0.8232
7.1708,-8.7586,-0.8296
7.1750,-8.7613,-0.8350
7.1792,-8.7624,-0.8403
7.1833,-8.7593,-0.8206
7.1875,-8.7616,-0.8273
7.1917,-8.7673,-0.8325
7.1958,-8.7721,-0.8382
7.2000,-8.7754,-0.8437
7.2042,-8.7702,-0.8229
7.2083,-8.7700,-0.8294
7.2125,-8.7723,-0.8347
7.2167,-8.7727,-0.8401
7.2208,-8.7691,-0.8203
7.2250,-8.7710,-0.8269
7.2292,-8.7722,-0.8327
7.2333,-8.7720,-0.8382
7.2375,-8.7701,-0.8436
7.2417,-8.7612,-0.8220
7.2458,-8.7572,-0.8287
7.2500,-8.7573,-0.8340
7.2542,-8.7570,-0.8395
7.2583,-8.7535,-0.8198
7.2625,-8.7532,-0.8267
7.2667,-8.7517,-0.8323
7.2708,-8.7487,-0.8378
7.2750,-8.7440,-0.8433
7.2792,-8.7339,-0.8211
7.2833,-8.7291,-0.8279
7.2875,-8.7290,-0.8332
7.2917,-8.7289,-0.8390
7.2958,-8.7264,-0.8207
7.3000,-8.7290,-0.8274
7.3042,-8.7325,-0.8324
7.3083,-8.7336,-0.8375
7.3125,-8.7310,-0.8426
7.3167,-8.7231,-0.8201
7.3208,-8.7206,-0.8269
7.3250,-8.7233,-0.8321
7.3292,-8.7262,-0.8375
7.3333,-8.7279,-0.8430
7.3375,-8.7226,-0.8230
7.3417,-8.7223,-0.8295
7.3458,-8.7255,-0.8349
7.3500,-8.7279,-0.8402
7.3542,-8.7262,-0.8207
7.3583,-8.7302,-0.8273
7.3625,-8.7377,-0.8325
7.3667,-8.7440,-0.8378
7.3708,-8.7464,-0.8429
7.3750,-8.7418,-0.8232
7.3792,-8.7421,-0.8297
7.3833,-8.7453,-0.8351
7.3875,-8.7473,-0.8404
7.3917,-8.7450,-0.8208
7.3958,-8.7481,-0.8274
7.4000,-8.7546,-0.8326
7.4042,-8.7597,-0.8380
7.4083,-8.7613,-0.8432
7.4125,-8.7558,-0.8233
7.4167,-8.7551,-0.8299
7.4208,-8.7573,-0.8352
7.4250,-8.7582,-0.8406
7.4292,-8.7550,-0.8208
7.4333,-8.7572,-0.8275
7.4375,-8.7628,-0.8327
7.4417,-8.7670,-0.8384
7.4458,-8.7696,-0.8438
7.4500,-8.7641,-0.8232
7.4542,-8.7635,-0.8297
7.4583,-8.7656,-0.8350
7.4625,-8.7662,-0.8404
7.4667,-8.7627,-0.8206
7.4708,-8.7647,-0.8273
7.4750,-8.7662,-0.8331
7.4792,-8.7660,-0.8385
7.4833,-8.7643,-0.8440
7.4875,-8.7556,-0.8224
7.4917,-8.7519,-0.8291
7.4958,-8.7523,-0.8344
7.5000,-8.7522,-0.8398
7.5042,-8.7490,-0.8201
7.5083,-8.7490,-0.8271
7.5125,-8.7478,-0.8327
7.5167,-8.7451,-0.8381
7.5208,-8.7407,-0.8436
7.5250,-8.7310,-0.8214
7.5292,-8.7265,-0.8283
7.5333,-8.7267,-0.8335
7.5375,-8.7273,-0.8392
7.5417,-8.7253,-0.8204
7.5458,-8.7264,-0.8273
7.5500,-8.7276,-0.8327
7.5542,-8.7276,-0.8376
7.5583,-8.7249,-0.8427
7.5625,-8.7171,-0.8205
7.5667,-8.7149,-0.8273
7.5708,-8.7180,-0.8325
7.5750,-8.7211,-0.8380
7.5792,-8.7212,-0.8240
7.5833,-8.7271,-0.8227
7.5875,-8.7358,-0.8286
7.5917,-8.7436,-0.8342
7.5958,-8.7497,-0.8396
7.6000,-8.7479,-0.8245
7.6042,-8.7519,-0.8286
7.6083,-8.7563,-0.8313
7.6125,-8.7594,-0.8366
7.6167,-8.7594,-0.8417
7.6208,-8.7530,-0.8229
7.6250,-8.7503,-0.8295
7.6292,-8.7482,-0.8349
7.6333,-8.7446,-0.8402
7.6375,-8.7380,-0.8200
7.6417,-8.7357,-0.8269
7.6458,-8.7350,-0.8322
7.6500,-8.7333,-0.8375
7.6542,-8.7302,-0.8430
7.6583,-8.7219,-0.8223
7.6625,-8.7187,-0.8290
7.6667,-8.7201,-0.8343
7.6708,-8.7217,-0.8397
7.6750,-8.7201,-0.8201
7.6792,-8.7246,-0.8267
7.6833,-8.7312,-0.8321
7.6875,-8.7368,-0.8377
7.6917,-8.7408,-0.8431
7.6958,-8.7369,-0.8220
7.7000,-8.7385,-0.8285
7.7042,-8.7431,-0.8338
7.7083,-8.7461,-0.8391
7.7125,-8.7452,-0.8194
7.7167,-8.7490,-0.8261
7.7208,-8.7520,-0.8318
7.7250,-8.7534,-0.8372
7.7292,-8.7531,-0.8427
7.7333,-8.7458,-0.8207
7.7375,-8.7438,-0.8273
7.7417,-8.7459,-0.8326
7.7458,-8.7474,-0.8381
7.7500,-8.7457,-0.8201
7.7542,-8.7468,-0.8269
7.7583,-8.7499,-0.8319
7.7625,-8.7508,-0.8370
7.7667,-8.7480,-0.8419
7.7708,-8.7395,-0.8195
7.7750,-8.7363,-0.8263
7.7792,-8.7382,-0.8315
7.7833,-8.7402,-0.8370
7.7875,-8.7408,-0.8425
7.7917,-8.7344,-0.8225
7.7958,-8.7330,-0.8290
7.8000,-8.7351,-0.8344
7.8042,-8.7365,-0.8398
7.8083,-8.7339,-0.8202
7.8125,-8.7369,-0.8268
7.8167,-8.7435,-0.8320
7.8208,-8.7490,-0.8374
7.8250,-8.7508,-0.8425
7.8292,-8.7456,-0.8228
7.8333,-8.7453,-0.8293
7.8375,-8.7480,-0.8347
7.8417,-8.7496,-0.8401
7.8458,-8.7470,-0.8204
7.8500,-8.7499,-0.8271
7.8542,-8.7562,-0.8323
7.8583,-8.7611,-0.8376
7.8625,-8.7630,-0.8428
7.8667,-8.7578,-0.8231
7.8708,-8.7574,-0.8296
7.8750,-8.7598,-0.8349
7.8792,-8.7608,-0.8403
7.8833,-8.7576,-0.8205
7.8875,-8.7599,-0.8272
7.8917,-8.7655,-0.8324
7.8958,-8.7698,-0.8380
7.9000,-8.7724,-0.8434
7.9042,-8.7669,-0.8229
7.9083,-8.7665,-0.8294
7.9125,-8.7686,-0.8347
7.9167,-8.7691,-0.8401
7.9208,-8.7655,-0.8203
7.9250,-8.7675,-0.8270
7.9292,-8.7689,-0.8327
7.9333,-8.7688,-0.8382
7.9375,-8.7670,-0.8437
7.9417,-8.7583,-0.8221
7.9458,-8.7545,-0.8288
7.9500,-8.7548,-0.8341
7.9542,-8.7547,-0.8395
7.9583,-8.7515,-0.8198
7.9625,-8.7514,-0.8268
7.9667,-8.7502,-0.8324
7.9708,-8.7474,-0.8378
7.9750,-8.7430,-0.8433
7.9792,-8.7332,-0.8211
7.9833,-8.7285,-0.8279
7.9875,-8.7288,-0.8332
7.9917,-8.7294,-0.8389
7.9958,-8.7274,-0.8201
8.0000,-8.7284,-0.8270
8.0042,-8.7302,-0.8323
8.0083,-8.7305,-0.8372
8.0125,-8.7279,-0.8423
8.0167,-8.7202,-0.8201
8.0208,-8.7180,-0.8269
8.0250,-8.7212,-0.8321
8.0292,-8.7243,-0.8378
8.0333,-8.7260,-0.8432
8.0375,-8.7204,-0.8229
8.0417,-8.7199,-0.8294
8.0458,-8.7229,-0.8347
8.0500,-8.7253,-0.8401
8.0542,-8.7237,-0.8206
8.0583,-8.7277,-0.8272
8.0625,-8.7353,-0.8324
8.0667,-8.7417,-0.8377
8.0708,-8.7443,-0.8428
8.0750,-8.7398,-0.8232
8.0792,-8.7403,-0.8297
8.0833,-8.7436,-0.8350
8.0875,-8.7457,-0.8404
8.0917,-8.7436,-0.8207
8.0958,-8.7469,-0.8273
8.1000,-8.7536,-0.8326
8.1042,-8.7589,-0.8379
8.1083,-8.7610,-0.8432
8.1125,-8.7559,-0.8232
8.1167,-8.7557,-0.8297
8.1208,-8.7582,-0.8351
8.1250,-8.7594,-0.8404
8.1292,-8.7564,-0.8207
8.1333,-8.7589,-0.8273
8.1375,-8.7648,-0.8326
8.1417,-8.7699,-0.8383
8.1458,-8.7734,-0.8437
8.1500,-8.7684,-0.8229
8.1542,-8.7683,-0.8294
8.1583,-8.7706,-0.8347
8.1625,-8.7712,-0.8401
8.1667,-8.7677,-0.8203
8.1708,-8.7699,-0.8270
8.1750,-8.7714,-0.8328
8.1792,-8.7714,-0.8383
8.1833,-8.7697,-0.8437
8.1875,-8.7609,-0.8220
8.1917,-8.7571,-0.8287
8.1958,-8.7573,-0.8340
8.2000,-8.7569,-0.8395
8.2042,-8.7535,-0.8198
8.2083,-8.7531,-0.8268
8.2125,-8.7516,-0.8324
8.2167,-8.7486,-0.8379
8.2208,-8.7439,-0.8433
8.2250,-8.7339,-0.8211
8.2292,-8.7290,-0.8280
8.2333,-8.7290,-0.8332
8.2375,-8.7285,-0.8390
8.2417,-8.7257,-0.8204
8.2458,-8.7259,-0.8273
8.2500,-8.7281,-0.8323
8.2542,-8.7285,-0.8375
8.2583,-8.7256,-0.8425
8.2625,-8.7177,-0.8201
8.2667,-8.7153,-0.8269
8.2708,-8.7183,-0.8321
8.2750,-8.7215,-0.8377
8.2792,-8.7233,-0.8432
8.2833,-8.7179,-0.8228
8.2875,-8.7177,-0.8294
8.2917,-8.7212,-0.8347
8.2958,-8.7240,-0.8401
8.3000,-8.7227,-0.8205
8.3042,-8.7270,-0.8271
8.3083,-8.7349,-0.8323
8.3125,-8.7415,-0.8376
8.3167,-8.7442,-0.8427
8.3208,-8.7400,-0.8231
8.3250,-8.7407,-0.8296
8.3292,-8.7443,-0.8349
8.3333,-8.7466,-0.8403
8.3375,-8.7445,-0.8206
8.3417,-8.7480,-0.8272
8.3458,-8.7547,-0.8324
8.3500,-8.7599,-0.8377
8.3542,-8.7623,-0.8430
8.3583,-8.7573,-0.8231
8.3625,-8.7572,-0.8296
8.3667,-8.7598,-0.8350
8.3708,-8.7609,-0.8403
8.3750,-8.7579,-0.8206
8.3792,-8.7603,-0.8273
8.3833,-8.7660,-0.8325
8.3875,-8.7710,-0.8382
8.3917,-8.7745,-0.8437
8.3958,-8.7693,-0.8229
8.4000,-8.7691,-0.8293
8.4042,-8.7714,-0.8347
8.4083,-8.7718,-0.8400
8.4125,-8.7682,-0.8203
8.4167,-8.7690,-0.8270
8.4208,-8.7690,-0.8327
8.4250,-8.7674,-0.8382
8.4292,-8.7642,-0.8437
8.4333,-8.7545,-0.8218
8.4375,-8.7497,-0.8286
8.4417,-8.7495,-0.8339
8.4458,-8.7491,-0.8393
8.4500,-8.7459,-0.8196
8.4542,-8.7459,-0.8266
8.4583,-8.7447,-0.8322
8.4625,-8.7420,-0.8377
8.4667,-8.7377,-0.8431
8.4708,-8.7282,-0.8210
8.4750,-8.7240,-0.8278
8.4792,-8.7249,-0.8331
8.4833,-8.7253,-0.8389
8.4875,-8.7231,-0.8205
8.4917,-8.7258,-0.8272
8.4958,-8.7295,-0.8322
8.5000,-8.7307,-0.8373
8.5042,-8.7286,-0.8423
8.5083,-8.7211,-0.8198
8.5125,-8.7192,-0.8266
8.5167,-8.7227,-0.8318
8.5208,-8.7260,-0.8376
8.5250,-8.7279,-0.8430
8.5292,-8.7225,-0.8225
8.5333,-8.7222,-0.8290
8.5375,-8.7254,-0.8343
8.5417,-8.7280,-0.8397
8.5458,-8.7265,-0.8201
8.5500,-8.7307,-0.8267
8.5542,-8.7384,-0.8319
8.5583,-8.7448,-0.8372
8.5625,-8.7474,-0.8423
8.5667,-8.7430,-0.8227
8.5708,-8.7436,-0.8292
8.5750,-8.7472,-0.8345
8.5792,-8.7494,-0.8399
8.5833,-8.7474,-0.8202
8.5875,-8.7509,-0.8268
8.5917,-8.7577,-0.8320
8.5958,-8.7630,-0.8373
8.6000,-8.7666,-0.8427
8.6042,-8.7622,-0.8226
8.6083,-8.7628,-0.8291
8.6125,-8.7658,-0.8344
8.6167,-8.7669,-0.8397
8.6208,-8.7639,-0.8200
8.6250,-8.7664,-0.8267
8.6292,-8.7715,-0.8320
8.6333,-8.7755,-0.8376
8.6375,-8.7780,-0.8431
8.6417,-8.7720,-0.8221
8.6458,-8.7711,-0.8286
8.6500,-8.7728,-0.8339
8.6542,-8.7729,-0.8393
8.6583,-8.7691,-0.8196
8.6625,-8.7683,-0.8265
8.6667,-8.7664,-0.8321
8.6708,-8.7629,-0.8376
8.6750,-8.7578,-0.8431
8.6792,-8.7470,-0.8210
8.6833,-8.7413,-0.8278
8.6875,-8.7402,-0.8331
8.6917,-8.7395,-0.8387
8.6958,-8.7364,-0.8196
8.7000,-8.7364,-0.8265
8.7042,-8.7352,-0.8321
8.7083,-8.7326,-0.8376
8.7125,-8.7278,-0.8425
8.7167,-8.7184,-0.8201
8.7208,-8.7145,-0.8269
8.7250,-8.7157,-0.8322
8.7292,-8.7173,-0.8377
8.7333,-8.7169,-0.8203
8.7375,-8.7246,-0.8265
8.7417,-8.7328,-0.8316
8.7458,-8.7375,-0.8366
8.7500,-8.7378,-0.8415
8.7542,-8.7319,-0.8190
8.7583,-8.7318,-0.8257
8.7625,-8.7363,-0.8309
8.7667,-8.7402,-0.8367
8.7708,-8.7426,-0.8421
8.7750,-8.7372,-0.8214
8.7792,-8.7372,-0.8279
8.7833,-8.7404,-0.8332
8.7875,-8.7426,-0.8386
8.7917,-8.7406,-0.8189
8.7958,-8.7444,-0.8255
8.8000,-8.7516,-0.8308
8.8042,-8.7573,-0.8360
8.8083,-8.7613,-0.8415
8.8125,-8.7574,-0.8214
8.8167,-8.7588,-0.8278
8.8208,-8.7625,-0.8332
8.8250,-8.7644,-0.8385
8.8292,-8.7620,-0.8187
8.8333,-8.7653,-0.8253
8.8375,-8.7718,-0.8306
8.8417,-8.7774,-0.8363
8.8458,-8.7814,-0.8417
8.8500,-8.7766,-0.8209
8.8542,-8.7772,-0.8273
8.8583,-8.7798,-0.8326
8.8625,-8.7805,-0.8379
8.8667,-8.7770,-0.8182
8.8708,-8.7765,-0.8251
8.8750,-8.7748,-0.8307
8.8792,-8.7716,-0.8362
8.8833,-8.7668,-0.8417
8.8875,-8.7560,-0.8195
8.8917,-8.7505,-0.8263
8.8958,-8.7498,-0.8316
8.9000,-8.7492,-0.8372
8.9042,-8.7459,-0.8187
8.9083,-8.7456,-0.8257
8.9125,-8.7479,-0.8308
8.9167,-8.7483,-0.8358
8.9208,-8.7454,-0.8409
8.9250,-8.7371,-0.8186
8.9292,-8.7344,-0.8254
8.9333,-8.7368,-0.8306
8.9375,-8.7391,-0.8363
8.9417,-8.7400,-0.8418
8.9458,-8.7335,-0.8214
8.9500,-8.7322,-0.8279
8.9542,-8.7344,-0.8332
8.9583,-8.7360,-0.8386
8.9625,-8.7336,-0.8191
8.9667,-8.7370,-0.8257
8.9708,-8.7440,-0.8309
8.9750,-8.7498,-0.8362
8.9792,-8.7519,-0.8414
8.9833,-8.7470,-0.8217
8.9875,-8.7471,-0.8282
8.9917,-8.7502,-0.8335
8.9958,-8.7520,-0.8389
9.0000,-8.7496,-0.8193
9.0042,-8.7529,-0.8259
9.0083,-8.7596,-0.8311
9.0125,-8.7647,-0.8364
9.0167,-8.7682,-0.8419
9.0208,-8.7637,-0.8217
9.0250,-8.7645,-0.8282
9.0292,-8.7676,-0.8335
9.0333,-8.7690,-0.8389
9.0375,-8.7660,-0.8191
9.0417,-8.7688,-0.8257
9.0458,-8.7748,-0.8309
9.0500,-8.7799,-0.8367
9.0542,-8.7835,-0.8421
9.0583,-8.7783,-0.8213
9.0625,-8.7784,-0.8277
9.0667,-8.7806,-0.8331
9.0708,-8.7809,-0.8384
9.0750,-8.7772,-0.8186
9.0792,-8.7764,-0.8256
9.0833,-8.7745,-0.8312
9.0875,-8.7710,-0.8367
9.0917,-8.7659,-0.8421
9.0958,-8.7549,-0.8200
9.1000,-8.7490,-0.8268
9.1042,-8.7479,-0.8321
9.1083,-8.7469,-0.8377
9.1125,-8.7435,-0.8196
9.1167,-8.7448,-0.8263
9.1208,-8.7470,-0.8314
9.1250,-8.7468,-0.8365
9.1292,-8.7432,-0.8416
9.1333,-8.7341,-0.8191
9.1375,-8.7305,-0.8259
9.1417,-8.7321,-0.8312
9.1458,-8.7341,-0.8366
9.1500,-8.7348,-0.8421
9.1542,-8.7286,-0.8221
9.1583,-8.7275,-0.8287
9.1625,-8.7301,-0.8340
9.1667,-8.7319,-0.8394
9.1708,-8.7298,-0.8198
9.1750,-8.7333,-0.8264
9.1792,-8.7406,-0.8317
9.1833,-8.7466,-0.8370
9.1875,-8.7489,-0.8421
9.1917,-8.7441,-0.8224
9.1958,-8.7443,-0.8289
9.2000,-8.7475,-0.8343
9.2042,-8.7494,-0.8396
9.2083,-8.7471,-0.8200
9.2125,-8.7503,-0.8266
9.2167,-8.7569,-0.8318
9.2208,-8.7620,-0.8371
9.2250,-8.7636,-0.8423
9.2292,-8.7582,-0.8226
9.2333,-8.7577,-0.8291
9.2375,-8.7601,-0.8344
9.2417,-8.7610,-0.8398
9.2458,-8.7579,-0.8201
9.2500,-8.7602,-0.8267
9.2542,-8.7659,-0.8320
9.2583,-8.7709,-0.8377
9.2625,-8.7743,-0.8431
9.2667,-8.7692,-0.8224
9.2708,-8.7692,-0.8289
9.2750,-8.7715,-0.8342
9.2792,-8.7722,-0.8395
9.2833,-8.7686,-0.8198
9.2875,-8.7708,-0.8264
9.2917,-8.7723,-0.8322
9.2958,-8.7723,-0.8377
9.3000,-8.7707,-0.8431
9.3042,-8.7620,-0.8215
9.3083,-8.7583,-0.8282
9.3125,-8.7587,-0.8335
9.3167,-8.7585,-0.8389
9.3208,-8.7551,-0.8194
9.3250,-8.7548,-0.8264
9.3292,-8.7534,-0.8320
9.3333,-8.7504,-0.8375
9.3375,-8.7458,-0.8429
9.3417,-8.7356,-0.8203
9.3458,-8.7307,-0.8272
9.3500,-8.7306,-0.8324
9.3542,-8.7311,-0.8379
9.3583,-8.7292,-0.8202
9.3625,-8.7339,-0.8266
9.3667,-8.7392,-0.8316
9.3708,-8.7417,-0.8367
9.3750,-8.7405,-0.8418
9.3792,-8.7335,-0.8194
9.3833,-8.7321,-0.8262
9.3875,-8.7356,-0.8314
9.3917,-8.7385,-0.8372
9.3958,-8.7399,-0.8427
9.4000,-8.7337,-0.8220
9.4042,-8.7326,-0.8285
9.4083,-8.7350,-0.8338
9.4125,-8.7366,-0.8392
9.4167,-8.7343,-0.8197
9.4208,-8.7377,-0.8263
9.4250,-8.7447,-0.8315
9.4292,-8.7505,-0.8368
9.4333,-8.7533,-0.8420
9.4375,-8.7488,-0.8223
9.4417,-8.7494,-0.8287
9.4458,-8.7526,-0.8341
9.4500,-8.7544,-0.8394
9.4542,-8.7520,-0.8197
9.4583,-8.7552,-0.8264
9.4625,-8.7617,-0.8316
9.4667,-8.7666,-0.8369
9.4708,-8.7698,-0.8423
9.4750,-8.7651,-0.8222
9.4792,-8.7656,-0.8287
9.4833,-8.7685,-0.8340
9.4875,-8.7695,-0.8393
9.4917,-8.7664,-0.8195
9.4958,-8.7689,-0.8262
9.5000,-8.7729,-0.8316
9.5042,-8.7759,-0.8372
9.5083,-8.7773,-0.8427
9.5125,-8.7706,-0.8215
9.5167,-8.7690,-0.8281
9.5208,-8.7705,-0.8334
9.5250,-8.7705,-0.8387
9.5292,-8.7670,-0.8190
9.5333,-8.7664,-0.8260
9.5375,-8.7647,-0.8316
9.5417,-8.7614,-0.8371
9.5458,-8.7565,-0.8425
9.5500,-8.7459,-0.8204
9.5542,-8.7404,-0.8272
9.5583,-8.7398,-0.8325
9.5625,-8.7393,-0.8382
9.5667,-8.7362,-0.8199
9.5708,-8.7367,-0.8268
9.5750,-8.7396,-0.8316
9.5792,-8.7406,-0.8368
9.5833,-8.7381,-0.8419
9.5875,-8.7301,-0.8195
9.5917,-8.7275,-0.8262
9.5958,-8.7302,-0.8315
9.6000,-8.7328,-0.8369
9.6042,-8.7341,-0.8424
9.6083,-8.7282,-0.8224
9.6125,-8.7275,-0.8289
9.6167,-8.7303,-0.8342
9.6208,-8.7323,-0.8396
9.6250,-8.7302,-0.8200
9.6292,-8.7338,-0.8267
9.6333,-8.7411,-0.8319
9.6375,-8.7471,-0.8372
9.6417,-8.7493,-0.8423
9.6458,-8.7445,-0.8226
9.6500,-8.7446,-0.8291
9.6542,-8.7477,-0.8345
9.6583,-8.7496,-0.8398
9.6625,-8.7472,-0.8202
9.6667,-8.7503,-0.8268
9.6708,-8.7569,-0.8320
9.6750,-8.7619,-0.8374
9.6792,-8.7641,-0.8426
9.6833,-8.7590,-0.8228
9.6875,-8.7588,-0.8293
9.6917,-8.7614,-0.8346
9.6958,-8.7624,-0.8400
9.7000,-8.7593,-0.8202
9.7042,-8.7616,-0.8269
9.7083,-8.7673,-0.8321
9.7125,-8.7722,-0.8378
9.7167,-8.7755,-0.8433
9.7208,-8.7703,-0.8225
9.7250,-8.7702,-0.8290
9.7292,-8.7725,-0.8343
9.7333,-8.7731,-0.8397
9.7375,-8.7695,-0.8199
9.7417,-8.5279,-0.3611
9.7458,-8.4532,-0.4065
9.7500,-8.5031,-0.4755
9.7542,-8.5039,-0.4508
9.7583,-8.4837,-0.4373
9.7625,-8.4848,-0.4185
9.7667,-8.6456,-0.4613
9.7708,-8.7887,-0.4386
9.7750,-9.0452,-0.4519
9.7792,-9.2735,-0.4253
9.7833,-9.5814,-0.4168
9.7875,-9.9424,-0.2649
9.7917,-10.3128,-0.0881
9.7958,-10.7139,-0.0362
9.8000,-10.9495,0.1565
9.8042,-11.1753,0.2252
9.8083,-11.1843,0.4379
9.8125,-11.0002,0.7620
9.8167,-10.5599,0.9813
9.8208,-9.6070,1.5071
9.8250,-8.6924,1.3362
9.8292,-7.2091,1.8641
9.8333,-5.1389,2.3562
9.8375,-1.8005,3.3768
9.8417,2.3234,3.7687
9.8458,7.4838,4.3049
9.8500,12.0740,3.0899
9.8542,17.9481,3.6710
9.8583,24.5576,3.4468
9.8625,31.1994,2.4334
9.8667,37.0866,-0.3391
9.8708,42.1197,-2.4690
