Time (s),Pitch (deg),Velocity (m/s)
0.0000,-0.1516,-0.0122
0.0042,-0.3466,-0.0067
0.0083,-0.5542,-0.0031
0.0125,-0.7575,-0.0001
0.0167,-0.9589,0.0029
0.0208,-1.1579,0.0059
0.0250,-1.3546,0.0089
0.0292,-1.5490,0.0120
0.0333,-1.7412,0.0152
0.0375,-1.9319,0.0178
0.0417,-2.1215,0.0190
0.0458,-2.3081,0.0204
0.0500,-2.4922,0.0218
0.0542,-2.6737,0.0232
0.0583,-2.8527,0.0247
0.0625,-3.0291,0.0262
0.0667,-3.2031,0.0278
0.0708,-3.3746,0.0294
0.0750,-3.5436,0.0310
0.0792,-3.7103,0.0327
0.0833,-3.8745,0.0345
0.0875,-4.0364,0.0363
0.0917,-4.1959,0.0381
0.0958,-4.3532,0.0400
0.1000,-4.5082,0.0419
0.1042,-4.6627,0.0415
0.1083,-4.8134,0.0417
0.1125,-4.9612,0.0418
0.1167,-5.1061,0.0419
0.1208,-5.2479,0.0421
0.1250,-5.3867,0.0424
0.1292,-5.5224,0.0427
0.1333,-5.6551,0.0430
0.1375,-5.7847,0.0434
0.1417,-5.9112,0.0439
0.1458,-6.0347,0.0444
0.1500,-6.1551,0.0449
0.1542,-6.2724,0.0455
0.1583,-6.3866,0.0461
0.1625,-6.4978,0.0468
0.1667,-6.6059,0.0475
0.1708,-6.7110,0.0483
0.1750,-6.8130,0.0491
0.1792,-6.9121,0.0499
0.1833,-7.0084,0.0508
0.1875,-7.1018,0.0518
0.1917,-7.1949,0.0493
0.1958,-7.2808,0.0486
0.2000,-7.3606,0.0478
0.2042,-7.4343,0.0470
0.2083,-7.5020,0.0463
0.2125,-7.5635,0.0456
0.2167,-7.6190,0.0449
0.2208,-7.6686,0.0442
0.2250,-7.7128,0.0436
0.2292,-7.7518,0.0429
0.2333,-7.7860,0.0423
0.2375,-7.8158,0.0416
0.2417,-7.8417,0.0410
0.2458,-7.8638,0.0403
0.2500,-7.8826,0.0397
0.2542,-7.8984,0.0390
0.2583,-7.9112,0.0384
0.2625,-7.9215,0.0378
0.2667,-7.9293,0.0372
0.2708,-7.9349,0.0366
0.2750,-7.9383,0.0360
0.2792,-7.9399,0.0354
0.2833,-7.9396,0.0348
0.2875,-7.9376,0.0342
0.2917,-7.9341,0.0337
0.2958,-7.9292,0.0332
0.3000,-7.9229,0.0326
0.3042,-7.9154,0.0321
0.3083,-7.9068,0.0316
0.3125,-7.8971,0.0311
0.3167,-7.8865,0.0306
0.3208,-7.8750,0.0301
0.3250,-7.8627,0.0297
0.3292,-7.8497,0.0292
0.3333,-7.8361,0.0287
0.3375,-7.8219,0.0283
0.3417,-7.8072,0.0279
0.3458,-7.7920,0.0274
0.3500,-7.7764,0.0270
0.3542,-7.7604,0.0266
0.3583,-7.7442,0.0262
0.3625,-7.7277,0.0258
0.3667,-7.7111,0.0255
0.3708,-7.6942,0.0251
0.3750,-7.6772,0.0247
0.3792,-7.6602,0.0244
0.3833,-7.6431,0.0240
0.3875,-7.6259,0.0237
0.3917,-7.6088,0.0234
0.3958,-7.5917,0.0231
0.4000,-7.5747,0.0228
0.4042,-7.5578,0.0225
0.4083,-7.5409,0.0222
0.4125,-7.5243,0.0219
0.4167,-7.5077,0.0216
0.4208,-7.4914,0.0213
0.4250,-7.4752,0.0211
0.4292,-7.4592,0.0208
0.4333,-7.4434,0.0206
0.4375,-7.4279,0.0203
0.4417,-7.4126,0.0201
0.4458,-7.3976,0.0199
0.4500,-7.3828,0.0197
0.4542,-7.3684,0.0195
0.4583,-7.3542,0.0193
0.4625,-7.3403,0.0191
0.4667,-7.3267,0.0189
0.4708,-7.3134,0.0187
0.4750,-7.3004,0.0186
0.4792,-7.2877,0.0184
0.4833,-7.2754,0.0183
0.4875,-7.2634,0.0181
0.4917,-7.2518,0.0180
0.4958,-7.2405,0.0179
0.5000,-7.2295,0.0178
0.5042,-7.2189,0.0176
0.5083,-7.2086,0.0175
0.5125,-7.1987,0.0175
0.5167,-7.1892,0.0174
0.5208,-7.1800,0.0173
0.5250,-7.1712,0.0172
0.5292,-7.1628,0.0172
0.5333,-7.1547,0.0171
0.5375,-7.1470,0.0171
0.5417,-7.1397,0.0170
0.5458,-7.1328,0.0170
0.5500,-7.1262,0.0170
0.5542,-7.1201,0.0170
0.5583,-7.1143,0.0170
0.5625,-7.1089,0.0170
0.5667,-7.1039,0.0170
0.5708,-7.0993,0.0170
0.5750,-7.0951,0.0171
0.5792,-7.0913,0.0171
0.5833,-7.0879,0.0172
0.5875,-7.0848,0.0172
0.5917,-7.0822,0.0173
0.5958,-7.0800,0.0174
0.6000,-7.0782,0.0175
0.6042,-7.0768,0.0175
0.6083,-7.0759,0.0177
0.6125,-7.0753,0.0178
0.6167,-7.0752,0.0179
0.6208,-7.0755,0.0180
0.6250,-7.0762,0.0182
0.6292,-7.0773,0.0183
0.6333,-7.0789,0.0185
0.6375,-7.0809,0.0187
0.6417,-7.0833,0.0189
0.6458,-7.0862,0.0191
0.6500,-7.0896,0.0193
0.6542,-7.0934,0.0195
0.6583,-7.0976,0.0197
0.6625,-7.1023,0.0200
0.6667,-7.1075,0.0203
0.6708,-7.1131,0.0205
0.6750,-7.1192,0.0208
0.6792,-7.1258,0.0211
0.6833,-7.1328,0.0214
0.6875,-7.1404,0.0217
0.6917,-7.1484,0.0221
0.6958,-7.1570,0.0224
0.7000,-7.1660,0.0228
0.7042,-7.1756,0.0232
0.7083,-7.1857,0.0236
0.7125,-7.1963,0.0240
0.7167,-7.2074,0.0244
0.7208,-7.2190,0.0248
0.7250,-7.2312,0.0253
0.7292,-7.2440,0.0257
0.7333,-7.2573,0.0262
0.7375,-7.2711,0.0267
0.7417,-7.2856,0.0272
0.7458,-7.3006,0.0278
0.7500,-7.3162,0.0283
0.7542,-7.3323,0.0289
0.7583,-7.3509,0.0268
0.7625,-7.3648,0.0256
0.7667,-7.3740,0.0245
0.7708,-7.3788,0.0233
0.7750,-7.3794,0.0221
0.7792,-7.3760,0.0209
0.7833,-7.3689,0.0198
0.7875,-7.3581,0.0186
0.7917,-7.3440,0.0174
0.7958,-7.3265,0.0162
0.8000,-7.3059,0.0150
0.8042,-7.2823,0.0138
0.8083,-7.2558,0.0126
0.8125,-7.2266,0.0114
0.8167,-7.1947,0.0101
0.8208,-7.1605,0.0089
0.8250,-7.1238,0.0077
0.8292,-7.0849,0.0064
0.8333,-7.0424,0.0075
0.8375,-7.0045,0.0080
0.8417,-6.9716,0.0084
0.8458,-6.9430,0.0088
0.8500,-6.9183,0.0093
0.8542,-6.8974,0.0098
0.8583,-6.8799,0.0103
0.8625,-6.8657,0.0108
0.8667,-6.8546,0.0114
0.8708,-6.8462,0.0119
0.8750,-6.8406,0.0125
0.8792,-6.8374,0.0131
0.8833,-6.8367,0.0137
0.8875,-6.8381,0.0144
0.8917,-6.8417,0.0150
0.8958,-6.8472,0.0157
0.9000,-6.8547,0.0164
0.9042,-6.8639,0.0171
0.9083,-6.8765,0.0154
0.9125,-6.8854,0.0143
0.9167,-6.8901,0.0133
0.9208,-6.8908,0.0123
0.9250,-6.8877,0.0112
0.9292,-6.8809,0.0102
0.9333,-6.8708,0.0092
0.9375,-6.8574,0.0081
0.9417,-6.8409,0.0070
0.9458,-6.8215,0.0060
0.9500,-6.7993,0.0049
0.9542,-6.7744,0.0038
0.9583,-6.7454,0.0051
0.9625,-6.7207,0.0057
0.9667,-6.7004,0.0063
0.9708,-6.6839,0.0069
0.9750,-6.6711,0.0075
0.9792,-6.6617,0.0082
0.9833,-6.6555,0.0088
0.9875,-6.6523,0.0095
0.9917,-6.6518,0.0102
0.9958,-6.6540,0.0110
1.0000,-6.6586,0.0117
1.0042,-6.6655,0.0125
1.0083,-6.6762,0.0109
1.0125,-6.6837,0.0098
1.0167,-6.6871,0.0089
1.0208,-6.6867,0.0079
1.0250,-6.6826,0.0070
1.0292,-6.6751,0.0060
1.0333,-6.6644,0.0050
1.0375,-6.6506,0.0040
1.0417,-6.6338,0.0030
1.0458,-6.6127,0.0043
1.0500,-6.5953,0.0051
1.0542,-6.5821,0.0058
1.0583,-6.5725,0.0065
1.0625,-6.5664,0.0072
1.0667,-6.5635,0.0079
1.0708,-6.5635,0.0087
1.0750,-6.5664,0.0095
1.0792,-6.5735,0.0079
1.0833,-6.5777,0.0069
1.0875,-6.5780,0.0060
1.0917,-6.5748,0.0051
1.0958,-6.5681,0.0041
1.1000,-6.5582,0.0032
1.1042,-6.5448,0.0030
1.1083,-6.5295,0.0042
1.1125,-6.5179,0.0050
1.1167,-6.5100,0.0057
1.1208,-6.5056,0.0064
1.1250,-6.5044,0.0072
1.1292,-6.5062,0.0080
1.1333,-6.5124,0.0065
1.1375,-6.5158,0.0055
1.1417,-6.5155,0.0046
1.1458,-6.5117,0.0037
1.1500,-6.5046,0.0028
1.1542,-6.4944,0.0019
1.1583,-6.4795,0.0033
1.1625,-6.4682,0.0041
1.1667,-6.4606,0.0048
1.1708,-6.4566,0.0056
1.1750,-6.4559,0.0064
1.1792,-6.4582,0.0072
1.1833,-6.4650,0.0057
1.1875,-6.4690,0.0047
1.1917,-6.4694,0.0039
1.1958,-6.4662,0.0030
1.2000,-6.4598,0.0021
1.2042,-6.4503,0.0012
1.2083,-6.4362,0.0026
1.2125,-6.4255,0.0034
1.2167,-6.4187,0.0042
1.2208,-6.4155,0.0050
1.2250,-6.4156,0.0058
1.2292,-6.4192,0.0058
1.2333,-6.4248,0.0045
1.2375,-6.4274,0.0036
1.2417,-6.4264,0.0027
1.2458,-6.4220,0.0018
1.2500,-6.4145,0.0010
1.2542,-6.4023,0.0024
1.2583,-6.3934,0.0033
1.2625,-6.3884,0.0040
1.2667,-6.3868,0.0049
1.2708,-6.3887,0.0053
1.2750,-6.3941,0.0039
1.2792,-6.3967,0.0030
1.2833,-6.3959,0.0021
1.2875,-6.3917,0.0013
1.2917,-6.3839,0.0009
1.2958,-6.3731,0.0022
1.3000,-6.3656,0.0031
1.3042,-6.3619,0.0039
1.3083,-6.3617,0.0047
1.3125,-6.3653,0.0042
1.3167,-6.3697,0.0030
1.3208,-6.3709,0.0022
1.3250,-6.3688,0.0013
1.3292,-6.3632,0.0005
1.3333,-6.3532,0.0019
1.3375,-6.3463,0.0028
1.3417,-6.3432,0.0036
1.3458,-6.3435,0.0045
1.3500,-6.3484,0.0033
1.3542,-6.3516,0.0023
1.3583,-6.3515,0.0014
1.3625,-6.3480,0.0006
1.3667,-6.3404,0.0008
1.3708,-6.3317,0.0020
1.3750,-6.3266,0.0028
1.3792,-6.3250,0.0037
1.3833,-6.3270,0.0041
1.3875,-6.3327,0.0028
1.3917,-6.3356,0.0019
1.3958,-6.3351,0.0010
1.4000,-6.3313,0.0002
1.4042,-6.3233,0.0006
1.4083,-6.3149,0.0018
1.4125,-6.3101,0.0026
1.4167,-6.3089,0.0034
1.4208,-6.3114,0.0039
1.4250,-6.3173,0.0025
1.4292,-6.3205,0.0016
1.4333,-6.3203,0.0008
1.4375,-6.3168,0.0000
1.4417,-6.3092,0.0002
1.4458,-6.3005,0.0014
1.4500,-6.2954,0.0023
1.4542,-6.2940,0.0031
1.4583,-6.2961,0.0040
1.4625,-6.3029,0.0025
1.4667,-6.3071,0.0016
1.4708,-6.3079,0.0008
1.4750,-6.3053,0.0000
1.4792,-6.2994,-0.0007
1.4833,-6.2893,0.0007
1.4875,-6.2825,0.0016
1.4917,-6.2795,0.0025
1.4958,-6.2801,0.0033
1.5000,-6.2844,0.0034
1.5042,-6.2912,0.0022
1.5083,-6.2951,0.0013
1.5125,-6.2955,0.0005
1.5167,-6.2926,-0.0003
1.5208,-6.2863,-0.0008
1.5250,-6.2765,0.0006
1.5292,-6.2701,0.0015
1.5333,-6.2675,0.0023
1.5375,-6.2685,0.0032
1.5417,-6.2734,0.0030
1.5458,-6.2798,0.0018
1.5500,-6.2832,0.0010
1.5542,-6.2833,0.0002
1.5583,-6.2800,-0.0006
1.5625,-6.2728,-0.0005
1.5667,-6.2644,0.0008
1.5708,-6.2596,0.0017
1.5750,-6.2586,0.0025
1.5792,-6.2611,0.0034
1.5833,-6.2683,0.0020
1.5875,-6.2731,0.0011
1.5917,-6.2744,0.0003
1.5958,-6.2723,-0.0005
1.6000,-6.2669,-0.0012
1.6042,-6.2575,0.0003
1.6083,-6.2515,0.0012
1.6125,-6.2494,0.0021
1.6167,-6.2508,0.0029
1.6208,-6.2564,0.0024
1.6250,-6.2625,0.0013
1.6292,-6.2654,0.0005
1.6333,-6.2651,-0.0003
1.6375,-6.2614,-0.0011
1.6417,-6.2532,0.0002
1.6458,-6.2476,0.0012
1.6500,-6.2459,0.0021
1.6542,-6.2479,0.0026
1.6583,-6.2536,0.0012
1.6625,-6.2567,0.0004
1.6667,-6.2564,-0.0004
1.6708,-6.2526,-0.0009
1.6750,-6.2453,0.0005
1.6792,-6.2411,0.0015
1.6833,-6.2407,0.0023
1.6875,-6.2445,0.0019
1.6917,-6.2491,0.0007
1.6958,-6.2507,-0.0001
1.7000,-6.2490,-0.0009
1.7042,-6.2429,0.0001
1.7083,-6.2381,0.0012
1.7125,-6.2368,0.0020
1.7167,-6.2396,0.0019
1.7208,-6.2442,0.0007
1.7250,-6.2461,-0.0001
1.7292,-6.2446,-0.0009
1.7333,-6.2387,0.0001
1.7375,-6.2342,0.0012
1.7417,-6.2333,0.0021
1.7458,-6.2367,0.0014
1.7500,-6.2403,0.0003
1.7542,-6.2409,-0.0005
1.7583,-6.2376,-0.0006
1.7625,-6.2320,0.0007
1.7667,-6.2297,0.0017
1.7708,-6.2312,0.0022
1.7750,-6.2367,0.0009
1.7792,-6.2397,0.0000
1.7833,-6.2394,-0.0008
1.7875,-6.2356,-0.0013
1.7917,-6.2282,0.0002
1.7958,-6.2240,0.0011
1.8000,-6.2235,0.0020
1.8042,-6.2268,0.0026
1.8083,-6.2341,0.0012
1.8125,-6.2387,0.0004
1.8167,-6.2400,-0.0004
1.8208,-6.2380,-0.0012
1.8250,-6.2326,-0.0018
1.8292,-6.2233,-0.0003
1.8333,-6.2174,0.0006
1.8375,-6.2155,0.0015
1.8417,-6.2171,0.0023
1.8458,-6.2223,0.0029
1.8500,-6.2311,0.0015
1.8542,-6.2372,0.0007
1.8583,-6.2398,-0.0001
1.8625,-6.2390,-0.0009
1.8667,-6.2351,-0.0017
1.8708,-6.2277,-0.0020
1.8750,-6.2176,-0.0006
1.8792,-6.2112,0.0003
1.8833,-6.2087,0.0012
1.8875,-6.2099,0.0021
1.8917,-6.2145,0.0030
1.8958,-6.2239,0.0016
1.9000,-6.2307,0.0007
1.9042,-6.2340,-0.0000
1.9083,-6.2339,-0.0008
1.9125,-6.2306,-0.0016
1.9167,-6.2237,-0.0018
1.9208,-6.2145,-0.0004
1.9250,-6.2090,0.0005
1.9292,-6.2075,0.0014
1.9333,-6.2095,0.0023
1.9375,-6.2151,0.0027
1.9417,-6.2240,0.0014
1.9458,-6.2303,0.0006
1.9500,-6.2330,-0.0002
1.9542,-6.2324,-0.0010
1.9583,-6.2285,-0.0018
1.9625,-6.2213,-0.0021
1.9667,-6.2112,-0.0007
1.9708,-6.2047,0.0002
1.9750,-6.2022,0.0011
1.9792,-6.2034,0.0020
1.9833,-6.2080,0.0029
1.9875,-6.2173,0.0015
1.9917,-6.2242,0.0006
1.9958,-6.2275,-0.0002
2.0000,-6.2274,-0.0009
2.0042,-6.2241,-0.0017
2.0083,-6.2167,-0.0014
2.0125,-6.2087,-0.0002
2.0167,-6.2045,0.0007
2.0208,-6.2040,0.0016
2.0250,-6.2071,0.0025
2.0292,-6.2151,0.0011
2.0333,-6.2206,0.0002
2.0375,-6.2227,-0.0005
2.0417,-6.2214,-0.0013
2.0458,-6.2166,-0.0016
2.0500,-6.2088,-0.0002
2.0542,-6.2045,0.0007
2.0583,-6.2040,0.0016
2.0625,-6.2070,0.0025
2.0667,-6.2149,0.0011
2.0708,-6.2203,0.0002
2.0750,-6.2223,-0.0006
2.0792,-6.2210,-0.0013
2.0833,-6.2163,-0.0020
2.0875,-6.2077,-0.0005
2.0917,-6.2023,0.0004
2.0958,-6.2009,0.0013
2.1000,-6.2031,0.0022
2.1042,-6.2097,0.0016
2.1083,-6.2164,0.0005
2.1125,-6.2199,-0.0003
2.1167,-6.2201,-0.0010
2.1208,-6.2170,-0.0018
2.1250,-6.2096,-0.0009
2.1292,-6.2034,0.0002
2.1333,-6.2010,0.0011
2.1375,-6.2023,0.0020
2.1417,-6.2079,0.0015
2.1458,-6.2141,0.0004
2.1500,-6.2172,-0.0004
2.1542,-6.2170,-0.0012
2.1583,-6.2133,-0.0017
2.1625,-6.2058,-0.0003
2.1667,-6.2015,0.0007
2.1708,-6.2011,0.0015
2.1750,-6.2045,0.0018
2.1792,-6.2111,0.0006
2.1833,-6.2149,-0.0003
2.1875,-6.2154,-0.0010
2.1917,-6.2125,-0.0017
2.1958,-6.2056,-0.0003
2.2000,-6.2015,0.0007
2.2042,-6.2012,0.0016
2.2083,-6.2049,0.0013
2.2125,-6.2102,0.0002
2.2167,-6.2126,-0.0006
2.2208,-6.2116,-0.0014
2.2250,-6.2066,-0.0007
2.2292,-6.2018,0.0004
2.2333,-6.2006,0.0013
2.2375,-6.2033,0.0015
2.2417,-6.2086,0.0004
2.2458,-6.2118,-0.0005
2.2500,-6.2117,-0.0012
2.2542,-6.2077,-0.0011
2.2583,-6.2023,0.0002
2.2625,-6.2003,0.0012
2.2667,-6.2023,0.0015
2.2708,-6.2073,0.0006
2.2750,-6.2109,-0.0003
2.2792,-6.2113,-0.0011
2.2833,-6.2079,-0.0010
2.2875,-6.2029,0.0002
2.2917,-6.2008,0.0011
2.2958,-6.2027,0.0011
2.3000,-6.2066,0.0004
2.3042,-6.2093,-0.0006
2.3083,-6.2086,-0.0010
2.3125,-6.2050,-0.0007
2.3167,-6.2008,0.0005
2.3208,-6.2000,0.0014
2.3250,-6.2036,0.0009
2.3292,-6.2077,-0.0001
2.3333,-6.2092,-0.0009
2.3375,-6.2069,-0.0009
2.3417,-6.2030,-0.0002
2.3458,-6.2002,0.0009
2.3500,-6.2012,0.0011
2.3542,-6.2048,0.0006
2.3583,-6.2079,-0.0004
2.3625,-6.2078,-0.0009
2.3667,-6.2050,-0.0008
2.3708,-6.2008,0.0003
2.3750,-6.1997,0.0012
2.3792,-6.2026,0.0007
2.3833,-6.2057,0.0002
2.3875,-6.2074,-0.0006
2.3917,-6.2062,-0.0007
2.3958,-6.2036,-0.0006
2.4000,-6.2002,0.0005
2.4042,-6.1999,0.0011
2.4083,-6.2028,0.0007
2.4125,-6.2059,-0.0000
2.4167,-6.2071,-0.0007
2.4208,-6.2054,-0.0006
2.4250,-6.2026,-0.0004
2.4292,-6.1996,0.0006
2.4333,-6.2000,0.0010
2.4375,-6.2029,0.0007
2.4417,-6.2060,-0.0002
2.4458,-6.2065,-0.0008
2.4500,-6.2043,-0.0007
2.4542,-6.2010,-0.0001
2.4583,-6.1990,0.0009
2.4625,-6.2005,0.0008
2.4667,-6.2034,0.0004
2.4708,-6.2058,-0.0004
2.4750,-6.2057,-0.0007
2.4792,-6.2034,-0.0007
2.4833,-6.2000,0.0002
2.4875,-6.1987,0.0011
2.4917,-6.2011,0.0007
2.4958,-6.2039,0.0001
2.5000,-6.2055,-0.0006
2.5042,-6.2044,-0.0006
2.5083,-6.2018,-0.0004
2.5125,-6.1991,0.0007
2.5167,-6.1995,0.0010
2.5208,-6.2025,0.0004
2.5250,-6.2051,-0.0004
2.5292,-6.2050,-0.0008
2.5333,-6.2024,-0.0007
2.5375,-6.1989,0.0004
2.5417,-6.1983,0.0011
2.5458,-6.2013,0.0007
2.5500,-6.2046,-0.0002
2.5542,-6.2054,-0.0008
2.5583,-6.2032,-0.0007
2.5625,-6.1998,-0.0000
2.5667,-6.1980,0.0009
2.5708,-6.1997,0.0008
2.5750,-6.2027,0.0002
2.5792,-6.2047,-0.0005
2.5833,-6.2040,-0.0007
2.5875,-6.2014,-0.0006
2.5917,-6.1981,0.0006
2.5958,-6.1983,0.0010
2.6000,-6.2013,0.0006
2.6042,-6.2043,-0.0003
2.6083,-6.2046,-0.0009
2.6125,-6.2022,-0.0008
2.6167,-6.1985,0.0004
2.6208,-6.1977,0.0012
2.6250,-6.2009,0.0007
2.6292,-6.2044,-0.0002
2.6333,-6.2052,-0.0009
2.6375,-6.2028,-0.0008
2.6417,-6.1991,0.0000
2.6458,-6.2065,0.0046
2.6500,-6.2149,-0.0052
2.6542,-6.1721,0.0128
2.6583,-6.1617,0.0004
2.6625,-6.1589,0.0048
2.6667,-6.1672,-0.0036
2.6708,-6.1754,-0.0011
2.6750,-6.1884,-0.0072
2.6792,-6.1729,0.0058
2.6833,-6.1775,-0.0055
2.6875,-6.1668,0.0051
2.6917,-6.1745,-0.0061
2.6958,-6.1627,0.0058
2.7000,-6.1715,-0.0059
2.7042,-6.1627,0.0043
2.7083,-6.1720,-0.0064
2.7125,-6.1582,0.0075
2.7167,-6.1691,-0.0053
2.7208,-6.1656,0.0013
2.7250,-6.1717,-0.0047
2.7292,-6.1473,0.0136
2.7333,-6.1549,-0.0022
2.7375,-6.1524,0.0040
2.7417,-6.1621,-0.0047
2.7458,-6.1611,-0.0021
2.7500,-6.0510,0.1800
2.7542,-5.9677,0.1175
2.7583,-5.8839,0.1208
2.7625,-5.8428,0.1072
2.7667,-5.8010,0.0975
2.7708,-5.7581,0.0924
2.7750,-5.7160,0.0862
2.7792,-5.6755,0.0807
2.7833,-5.6742,0.0740
2.7875,-5.6703,0.0663
2.7917,-5.6630,0.0635
2.7958,-5.6550,0.0587
2.8000,-5.6471,0.0547
2.8042,-5.6405,0.0504
2.8083,-5.6360,0.0463
2.8125,-5.6342,0.0421
2.8167,-5.6716,0.0362
2.8208,-5.7066,0.0304
2.8250,-5.7378,0.0285
2.8292,-5.7683,0.0245
2.8333,-5.7985,0.0215
2.8375,-5.8297,0.0180
2.8417,-5.8623,0.0147
2.8458,-5.9317,0.0087
2.8500,-5.9979,0.0038
2.8542,-6.0378,0.0204
2.8583,-6.0786,0.0201
2.8625,-6.1185,0.0181
2.8667,-6.1559,0.0173
2.8708,-6.1908,0.0157
2.8750,-6.2225,0.0145
2.8792,-6.2913,0.0070
2.8833,-6.3568,0.0032
2.8875,-6.4136,0.0035
2.8917,-6.4539,0.0062
2.8958,-6.5300,-0.0022
2.9000,-6.5996,-0.0046
2.9042,-6.6520,-0.0015
2.9083,-6.6905,-0.0008
2.9125,-6.7074,0.0466
2.9167,-6.7523,0.0027
2.9208,-6.8089,0.0144
2.9250,-6.8704,-0.0061
2.9292,-6.9137,0.0016
2.9333,-6.9566,-0.0097
2.9375,-7.0210,-0.0082
2.9417,-7.0768,-0.0155
2.9458,-7.1085,-0.0078
2.9500,-7.1356,-0.0154
2.9542,-7.1434,-0.0096
2.9583,-7.1510,-0.0104
2.9625,-7.1550,-0.0099
2.9667,-7.1572,-0.0097
2.9708,-7.1582,-0.0095
2.9750,-7.1588,-0.0093
2.9792,-7.1595,-0.0091
2.9833,-7.1609,-0.0089
2.9875,-7.1633,-0.0088
2.9917,-7.1671,-0.0086
2.9958,-7.0729,-0.0167
3.0000,-6.9455,-0.0198
3.0042,-6.8162,-0.0214
3.0083,-6.6881,-0.0233
3.0125,-6.5608,-0.0252
3.0167,-6.4342,-0.0272
3.0208,-6.3065,-0.0276
3.0250,-6.1806,-0.0282
3.0292,-6.0563,-0.0287
3.0333,-5.9338,-0.0293
3.0375,-5.8130,-0.0299
3.0417,-5.6939,-0.0306
3.0458,-5.6127,-0.0252
3.0500,-5.5520,-0.0246
3.0542,-5.4984,-0.0235
3.0583,-5.4509,-0.0223
3.0625,-5.4096,-0.0211
3.0667,-5.3744,-0.0199
3.0708,-5.3521,-0.0205
3.0750,-5.3330,-0.0213
3.0792,-5.3129,-0.0205
3.0833,-5.2963,-0.0200
3.0875,-5.2833,-0.0195
3.0917,-5.2737,-0.0191
3.0958,-5.2672,-0.0186
3.1000,-5.2636,-0.0181
3.1042,-5.2627,-0.0176
3.1083,-5.2642,-0.0172
3.1125,-5.2679,-0.0167
3.1167,-5.2737,-0.0162
3.1208,-5.2814,-0.0157
3.1250,-5.2908,-0.0152
3.1292,-5.3017,-0.0147
3.1333,-5.3141,-0.0141
3.1375,-5.3277,-0.0136
3.1417,-5.3426,-0.0131
3.1458,-5.3585,-0.0126
3.1500,-5.3754,-0.0121
3.1542,-5.3931,-0.0115
3.1583,-5.4117,-0.0110
3.1625,-5.4310,-0.0105
3.1667,-5.4510,-0.0099
3.1708,-5.4716,-0.0094
3.1750,-5.4927,-0.0089
3.1792,-5.5143,-0.0083
3.1833,-5.5364,-0.0078
3.1875,-5.5589,-0.0072
3.1917,-5.5817,-0.0067
3.1958,-5.6049,-0.0062
3.2000,-5.6284,-0.0056
3.2042,-5.6522,-0.0050
3.2083,-5.6763,-0.0045
3.2125,-5.7007,-0.0039
3.2167,-5.7253,-0.0034
3.2208,-5.7500,-0.0028
3.2250,-5.7750,-0.0022
3.2292,-5.8002,-0.0017
3.2333,-5.8255,-0.0011
3.2375,-5.8511,-0.0005
3.2417,-5.8768,0.0001
3.2458,-5.9027,0.0007
3.2500,-5.9288,0.0013
3.2542,-5.9551,0.0019
3.2583,-5.9815,0.0025
3.2625,-6.0081,0.0031
3.2667,-6.0349,0.0037
3.2708,-6.0618,0.0043
3.2750,-6.0890,0.0050
3.2792,-6.1163,0.0056
3.2833,-6.1438,0.0063
3.2875,-6.1715,0.0069
3.2917,-6.1995,0.0076
3.2958,-6.2276,0.0083
3.3000,-6.2560,0.0089
3.3042,-6.2846,0.0096
3.3083,-6.3134,0.0103
3.3125,-6.3425,0.0110
3.3167,-6.3718,0.0118
3.3208,-6.4014,0.0125
3.3250,-6.4313,0.0132
3.3292,-6.4615,0.0140
3.3333,-6.4919,0.0148
3.3375,-6.5227,0.0155
3.3417,-6.5538,0.0163
3.3458,-6.5852,0.0171
3.3500,-6.6170,0.0180
3.3542,-6.6491,0.0188
3.3583,-6.6815,0.0197
3.3625,-6.7160,0.0179
3.3667,-6.7460,0.0169
3.3708,-6.7708,0.0161
3.3750,-6.7905,0.0152
3.3792,-6.8055,0.0143
3.3833,-6.8162,0.0134
3.3875,-6.8229,0.0125
3.3917,-6.8256,0.0116
3.3958,-6.8248,0.0107
3.4000,-6.8206,0.0098
3.4042,-6.8131,0.0088
3.4083,-6.8026,0.0079
3.4125,-6.7892,0.0069
3.4167,-6.7729,0.0059
3.4208,-6.7541,0.0049
3.4250,-6.7328,0.0040
3.4292,-6.6944,0.0209
3.4333,-6.6879,0.0064
3.4375,-6.6768,0.0108
3.4417,-6.6771,0.0037
3.4458,-6.6682,0.0046
3.4500,-6.6620,0.0010
3.4542,-6.6221,0.0172
3.4583,-6.5472,0.1850
3.4625,-6.5070,0.1385
3.4667,-6.4653,0.1334
3.4708,-6.4269,0.1234
3.4750,-6.3911,0.1156
3.4792,-6.3584,0.1082
3.4833,-6.3291,0.1014
3.4875,-6.3032,0.0952
3.4917,-6.3244,0.0869
3.4958,-6.3425,0.0798
3.5000,-6.4000,0.0737
3.5042,-6.4480,0.0682
3.5083,-6.4870,0.0649
3.5125,-6.5644,0.0585
3.5167,-6.6921,0.0878
3.5208,-6.8094,0.0659
3.5250,-6.9500,0.0591
3.5292,-7.0675,0.0520
3.5333,-7.2121,0.0433
3.5375,-7.3330,0.0381
3.5417,-7.4809,0.0308
3.5458,-7.6527,0.0229
3.5500,-7.7962,0.0193
3.5542,-7.9150,0.0175
3.5583,-8.0618,0.0119
3.5625,-8.2504,0.0463
3.5667,-8.4780,0.0107
3.5708,-8.6613,0.0112
3.5750,-8.8146,0.0053
3.5792,-8.9876,0.0005
3.5833,-9.1837,-0.0105
3.5875,-9.4074,0.0322
3.5917,-9.2706,0.1225
3.5958,-9.0629,0.1301
3.6000,-8.8816,0.1107
3.6042,-8.8105,0.1703
3.6083,-8.7761,0.1452
3.6125,-8.7399,0.1471
3.6167,-8.7086,0.1418
3.6208,-8.7155,0.1274
3.6250,-8.7524,0.1161
3.6292,-8.7641,0.1130
3.6333,-8.7747,0.1257
3.6375,-8.7872,0.1188
3.6417,-8.7951,0.1197
3.6458,-8.8485,0.1054
3.6500,-8.8827,0.1017
3.6542,-8.9034,0.1086
3.6583,-8.9748,0.1661
3.6625,-9.0559,0.1257
3.6667,-9.1301,0.1325
3.6708,-9.2137,0.1347
3.6750,-9.3032,0.1373
3.6792,-9.3977,0.1401
3.6833,-9.4962,0.1429
3.6875,-9.5981,0.1458
3.6917,-9.7113,0.1494
3.6958,-9.8287,0.1507
3.7000,-9.9481,0.1524
3.7042,-10.0691,0.1541
3.7083,-10.1912,0.1559
3.7125,-10.3143,0.1578
3.7167,-10.4384,0.1597
3.7208,-10.5634,0.1617
3.7250,-10.6890,0.1636
3.7292,-10.8148,0.1656
3.7333,-10.9408,0.1677
3.7375,-11.0548,0.1486
3.7417,-11.1445,0.1403
3.7458,-11.2194,0.1369
3.7500,-11.2852,0.1331
3.7542,-11.3421,0.1293
3.7583,-11.3929,0.1184
3.7625,-11.4266,0.1143
3.7667,-11.4500,0.1093
3.7708,-11.4644,0.1043
3.7750,-11.4704,0.0992
3.7792,-11.4682,0.0942
3.7833,-11.4487,0.0907
3.7875,-11.3878,0.0914
3.7917,-11.3246,0.0929
3.7958,-11.2670,0.0936
3.8000,-11.2141,0.0945
3.8042,-11.1655,0.0954
3.8083,-11.1306,0.0944
3.8125,-11.1105,0.0847
3.8167,-11.0676,0.0831
3.8208,-11.0205,0.0810
3.8250,-10.9707,0.0786
3.8292,-10.9177,0.0764
3.8333,-10.8614,0.0741
3.8375,-10.8019,0.0719
3.8417,-10.7393,0.0697
3.8458,-10.6737,0.0675
3.8500,-10.6053,0.0654
3.8542,-10.5341,0.0633
3.8583,-10.4602,0.0612
3.8625,-10.3839,0.0591
3.8667,-10.3053,0.0570
3.8708,-10.2246,0.0549
3.8750,-10.1418,0.0528
3.8792,-10.0572,0.0508
3.8833,-9.9709,0.0487
3.8875,-9.8830,0.0467
3.8917,-9.7938,0.0446
3.8958,-9.7033,0.0426
3.9000,-9.6117,0.0406
3.9042,-9.5190,0.0385
3.9083,-9.4254,0.0365
3.9125,-9.3309,0.0345
3.9167,-9.2357,0.0324
3.9208,-9.1398,0.0304
3.9250,-9.0435,0.0283
3.9292,-8.9465,0.0263
3.9333,-8.8489,0.0243
3.9375,-8.7509,0.0222
3.9417,-8.6526,0.0202
3.9458,-8.5523,0.0206
3.9500,-8.4579,0.0199
3.9542,-8.3675,0.0197
3.9583,-8.2818,0.0194
3.9625,-8.2007,0.0191
3.9667,-8.1239,0.0188
3.9708,-8.0514,0.0185
3.9750,-7.9829,0.0182
3.9792,-7.9183,0.0179
3.9833,-7.8573,0.0176
3.9875,-7.7999,0.0174
3.9917,-7.7458,0.0172
3.9958,-7.6947,0.0169
4.0000,-7.6467,0.0167
4.0042,-7.6014,0.0165
4.0083,-7.5587,0.0164
4.0125,-7.5185,0.0162
4.0167,-7.4807,0.0160
4.0208,-7.4450,0.0159
4.0250,-7.4114,0.0157
4.0292,-7.3798,0.0156
4.0333,-7.3501,0.0155
4.0375,-7.3221,0.0154
4.0417,-7.2957,0.0153
4.0458,-7.2710,0.0152
4.0500,-7.2477,0.0151
4.0542,-7.2258,0.0151
4.0583,-7.2053,0.0150
4.0625,-7.1861,0.0150
4.0667,-7.1681,0.0149
4.0708,-7.1513,0.0149
4.0750,-7.1356,0.0149
4.0792,-7.1210,0.0149
4.0833,-7.1074,0.0149
4.0875,-7.0947,0.0149
4.0917,-7.0830,0.0149
4.0958,-7.0722,0.0149
4.1000,-7.0623,0.0150
4.1042,-7.0532,0.0150
4.1083,-7.0449,0.0151
4.1125,-7.0374,0.0152
4.1167,-7.0307,0.0152
4.1208,-7.0247,0.0153
4.1250,-7.0194,0.0154
4.1292,-7.0148,0.0155
4.1333,-7.0108,0.0156
4.1375,-7.0075,0.0157
4.1417,-7.0049,0.0159
4.1458,-7.0029,0.0160
4.1500,-7.0015,0.0162
4.1542,-7.0006,0.0163
4.1583,-7.0004,0.0165
4.1625,-7.0008,0.0167
4.1667,-7.0017,0.0169
4.1708,-7.0032,0.0171
4.1750,-7.0053,0.0173
4.1792,-7.0079,0.0175
4.1833,-7.0110,0.0177
4.1875,-7.0147,0.0180
4.1917,-7.0190,0.0183
4.1958,-7.0237,0.0185
4.2000,-7.0290,0.0188
4.2042,-7.0348,0.0191
4.2083,-7.0412,0.0194
4.2125,-7.0481,0.0197
4.2167,-7.0555,0.0200
4.2208,-7.0634,0.0204
4.2250,-7.0719,0.0207
4.2292,-7.0808,0.0211
4.2333,-7.0904,0.0215
4.2375,-7.1004,0.0219
4.2417,-7.1110,0.0223
4.2458,-7.1222,0.0227
4.2500,-7.1338,0.0232
4.2542,-7.1461,0.0236
4.2583,-7.1588,0.0241
4.2625,-7.1722,0.0246
4.2667,-7.1860,0.0251
4.2708,-7.2005,0.0256
4.2750,-7.2155,0.0261
4.2792,-7.2311,0.0267
4.2833,-7.2473,0.0272
4.2875,-7.2640,0.0278
4.2917,-7.2831,0.0258
4.2958,-7.2977,0.0247
4.3000,-7.3077,0.0235
4.3042,-7.3134,0.0224
4.3083,-7.3150,0.0212
4.3125,-7.3127,0.0201
4.3167,-7.3067,0.0189
4.3208,-7.2972,0.0178
4.3250,-7.2844,0.0166
4.3292,-7.2683,0.0155
4.3333,-7.2492,0.0143
4.3375,-7.2272,0.0132
4.3417,-7.2023,0.0120
4.3458,-7.1748,0.0108
4.3500,-7.1448,0.0096
4.3542,-7.1123,0.0084
4.3583,-7.0776,0.0072
4.3625,-7.0406,0.0060
4.3667,-7.0000,0.0071
4.3708,-6.9642,0.0076
4.3750,-6.9331,0.0081
4.3792,-6.9061,0.0085
4.3833,-6.8831,0.0090
4.3875,-6.8636,0.0095
4.3917,-6.8476,0.0100
4.3958,-6.8347,0.0106
4.4000,-6.8249,0.0112
4.4042,-6.8178,0.0117
4.4083,-6.8133,0.0123
4.4125,-6.8113,0.0130
4.4167,-6.8116,0.0136
4.4208,-6.8141,0.0143
4.4250,-6.8186,0.0149
4.4292,-6.8251,0.0156
4.4333,-6.8334,0.0163
4.4375,-6.8452,0.0147
4.4417,-6.8534,0.0136
4.4458,-6.8576,0.0126
4.4500,-6.8579,0.0116
4.4542,-6.8545,0.0106
4.4583,-6.8477,0.0096
4.4625,-6.8375,0.0086
4.4667,-6.8243,0.0075
4.4708,-6.8081,0.0065
4.4750,-6.7890,0.0055
4.4792,-6.7672,0.0044
4.4833,-6.7417,0.0052
4.4875,-6.7186,0.0061
4.4917,-6.6998,0.0066
4.4958,-6.6848,0.0073
4.5000,-6.6733,0.0079
4.5042,-6.6651,0.0086
4.5083,-6.6600,0.0092
4.5125,-6.6578,0.0099
4.5167,-6.6583,0.0107
4.5208,-6.6681,0.0008
4.5250,-6.6604,0.0001
4.5292,-6.6502,0.0001
4.5333,-6.6402,0.0001
4.5375,-6.6307,0.0001
4.5417,-6.6218,0.0001
4.5458,-6.6133,0.0001
4.5500,-6.6052,0.0001
4.5542,-6.5976,0.0001
4.5583,-6.5903,0.0001
4.5625,-6.5834,0.0001
4.5667,-6.5768,0.0001
4.5708,-6.5705,0.0001
4.5750,-6.5645,0.0002
4.5792,-6.5587,0.0002
4.5833,-6.5531,0.0002
4.5875,-6.5477,0.0002
4.5917,-6.5426,0.0002
4.5958,-6.5376,0.0002
4.6000,-6.5328,0.0002
4.6042,-6.5282,0.0001
4.6083,-6.5237,0.0001
4.6125,-6.5194,0.0001
4.6167,-6.5153,0.0001
4.6208,-6.5112,0.0001
4.6250,-6.3234,0.2077
4.6292,-6.3933,0.1941
4.6333,-6.4227,0.2965
4.6375,-6.4841,0.2618
4.6417,-6.6848,0.1552
4.6458,-6.6267,0.3053
4.6500,-6.7567,0.2642
4.6542,-6.9153,0.2116
4.6583,-6.9482,0.3593
4.6625,-6.8053,0.3925
4.6667,-6.6708,0.2970
4.6708,-6.6601,0.2444
4.6750,-6.5813,0.3860
4.6792,-6.4178,0.4228
4.6833,-6.2918,0.3253
4.6875,-6.3225,0.2564
4.6917,-6.2586,0.3866
4.6958,-6.2633,0.3081
4.7000,-6.3063,0.2482
4.7042,-6.2791,0.3398
4.7083,-6.3363,0.3150
4.7125,-6.4442,0.2523
4.7167,-6.5018,0.3385
4.7208,-6.6192,0.2714
4.7250,-6.6056,0.4099
4.7292,-6.6636,0.3330
4.7333,-6.7505,0.2744
4.7375,-6.6994,0.2440
4.7417,-6.4546,0.3607
4.7458,-6.1432,0.3135
4.7500,-5.7890,0.4499
4.7542,-5.5690,0.3748
4.7583,-5.4597,0.3144
4.7625,-5.3056,0.4071
4.7667,-5.0286,0.5347
4.7708,-4.8161,0.4516
4.7750,-4.5686,0.5197
4.7792,-4.4054,0.4357
4.7833,-4.3595,0.4251
4.7875,-4.3365,0.4273
4.7917,-4.3369,0.4301
4.7958,-4.3601,0.4335
4.8000,-4.4035,0.4375
4.8042,-4.4412,0.4393
4.8083,-4.4198,0.4219
4.8125,-4.3826,0.4172
4.8167,-4.3448,0.4139
4.8208,-4.3065,0.4106
4.8250,-4.2805,0.4115
4.8292,-4.2551,0.3937
4.8333,-4.2298,0.3897
4.8375,-4.2045,0.3858
4.8417,-4.1926,0.3822
4.8458,-4.2525,0.4026
4.8500,-4.3157,0.4066
4.8542,-4.3796,0.4110
4.8583,-4.4436,0.4155
4.8625,-4.5075,0.4201
4.8667,-4.5364,0.4077
4.8708,-4.5664,0.4016
4.8750,-4.5965,0.3982
4.8792,-4.6262,0.3953
4.8833,-4.6642,0.4125
4.8875,-4.7027,0.4167
4.8917,-4.7415,0.4210
4.8958,-4.7765,0.4176
4.9000,-4.8122,0.4041
4.9042,-4.8480,0.3998
4.9083,-4.8838,0.3957
4.9125,-4.9190,0.3919
4.9167,-4.9534,0.4097
4.9208,-4.9884,0.4138
4.9250,-5.0237,0.4177
4.9292,-5.0591,0.4217
4.9333,-5.0946,0.4059
4.9375,-5.1303,0.4003
4.9417,-5.1659,0.3970
4.9458,-5.2012,0.3934
4.9500,-5.2364,0.4101
4.9542,-5.2722,0.4134
4.9583,-5.3084,0.4176
4.9625,-5.3445,0.4220
4.9667,-5.3810,0.4060
4.9708,-5.4176,0.4008
4.9750,-5.4544,0.3965
4.9792,-5.4910,0.3923
4.9833,-5.5273,0.4042
4.9875,-5.5645,0.4127
4.9917,-5.6022,0.4165
4.9958,-5.6400,0.4199
5.0000,-5.6783,0.4013
5.0042,-5.7169,0.3969
5.0083,-5.7556,0.3926
5.0125,-5.7943,0.3889
5.0167,-5.8326,0.3970
5.0208,-5.8721,0.4088
5.0250,-5.9123,0.4126
5.0292,-5.9527,0.4157
5.0333,-5.9940,0.3968
5.0375,-6.0355,0.3923
5.0417,-6.0772,0.3878
5.0458,-6.1190,0.3839
5.0500,-6.1601,0.3876
5.0542,-6.2024,0.4001
5.0583,-6.2461,0.4029
5.0625,-6.2902,0.4064
5.0667,-6.3347,0.3937
5.0708,-6.3798,0.3853
5.0750,-6.4252,0.3806
5.0792,-6.4706,0.3763
5.0833,-6.5162,0.3859
5.0875,-6.5634,0.3949
5.0917,-6.6113,0.3987
5.0958,-6.6597,0.4027
5.1000,-6.7090,0.3900
5.1042,-6.7592,0.3785
5.1083,-6.8096,0.3737
5.1125,-6.8602,0.3692
5.1167,-6.9108,0.3656
5.1208,-6.9626,0.3824
5.1250,-7.0157,0.3859
5.1292,-7.0693,0.3897
5.1333,-7.1232,0.3936
5.1375,-7.1787,0.3837
5.1417,-7.2352,0.3742
5.1458,-7.2915,0.3703
5.1500,-7.3479,0.3663
5.1542,-7.4050,0.3750
5.1583,-7.4636,0.3819
5.1625,-7.5232,0.3852
5.1667,-7.5833,0.3881
5.1708,-7.6457,0.3666
5.1750,-7.7081,0.3616
5.1792,-7.7709,0.3567
5.1833,-7.8337,0.3519
5.1875,-7.8958,0.3488
5.1917,-7.9595,0.3635
5.1958,-8.0257,0.3662
5.2000,-8.0929,0.3692
5.2042,-8.1611,0.3589
5.2083,-8.2305,0.3467
5.2125,-8.2997,0.3415
5.2167,-8.3693,0.3359
5.2208,-8.4386,0.3323
5.2250,-8.5103,0.3479
5.2292,-8.5840,0.3510
5.2333,-8.6586,0.3544
5.2375,-8.7337,0.3579
5.2417,-8.8111,0.3528
5.2458,-8.8904,0.3393
5.2500,-8.9694,0.3347
5.2542,-9.0484,0.3303
5.2583,-9.1280,0.3376
5.2625,-9.2099,0.3434
5.2667,-9.2931,0.3466
5.2708,-9.3778,0.3500
5.2750,-9.4670,0.3261
5.2792,-9.5549,0.3207
5.2833,-9.6427,0.3151
5.2875,-9.7303,0.3101
5.2917,-9.8174,0.3051
5.2958,-9.9033,0.3085
5.3000,-9.9929,0.3157
5.3042,-10.0850,0.3176
5.3083,-10.1781,0.3200
5.3125,-10.2754,0.3029
5.3167,-10.3707,0.2951
5.3208,-10.4649,0.2892
5.3250,-10.5578,0.2830
5.3292,-10.6490,0.2784
5.3333,-10.7399,0.2908
5.3375,-10.8357,0.2932
5.3417,-10.9327,0.2961
5.3458,-11.0309,0.2991
5.3500,-11.1341,0.2985
5.3542,-11.2410,0.2791
5.3583,-11.3404,0.2740
5.3625,-11.4384,0.2683
5.3667,-11.5339,0.2631
5.3708,-11.6269,0.2691
5.3750,-11.7249,0.2739
5.3792,-11.8255,0.2765
5.3833,-11.9288,0.2787
5.3875,-12.0398,0.2547
5.3917,-12.1386,0.2486
5.3958,-12.2348,0.2419
5.4000,-12.3267,0.2353
5.4042,-12.4140,0.2288
5.4083,-12.4939,0.2211
5.4125,-12.5589,0.2304
5.4167,-12.6331,0.2322
5.4208,-12.7092,0.2347
5.4250,-12.7877,0.2373
5.4292,-12.8683,0.2399
5.4333,-12.9615,0.2312
5.4375,-13.0500,0.2116
5.4417,-13.1208,0.2057
5.4458,-13.1838,0.1982
5.4500,-13.2341,0.1904
5.4542,-13.2570,0.1973
5.4583,-13.2850,0.1958
5.4625,-13.3154,0.2009
5.4667,-13.3525,0.2027
5.4708,-13.3940,0.2046
5.4750,-13.4437,0.1963
5.4792,-13.4826,0.1929
5.4833,-13.5125,0.1901
5.4875,-13.5350,0.1872
5.4917,-13.5506,0.1844
5.4958,-13.5642,0.1665
5.5000,-13.5572,0.1605
5.5042,-13.5259,0.1601
5.5083,-13.4937,0.1579
5.5125,-13.4607,0.1549
5.5167,-13.4256,0.1521
5.5208,-13.3888,0.1494
5.5250,-13.3504,0.1458
5.5292,-13.3089,0.1439
5.5333,-13.2672,0.1410
5.5375,-13.2236,0.1384
5.5417,-13.1783,0.1358
5.5458,-13.1315,0.1332
5.5500,-13.0829,0.1307
5.5542,-13.0328,0.1283
5.5583,-12.9812,0.1260
5.5625,-12.9282,0.1237
5.5667,-12.8738,0.1214
5.5708,-12.8193,0.1222
5.5750,-12.7710,0.1188
5.5792,-12.7192,0.1156
5.5833,-12.6639,0.1124
5.5875,-12.6049,0.1093
5.5917,-12.5421,0.1062
5.5958,-12.4756,0.1033
5.6000,-12.4051,0.1003
5.6042,-12.3308,0.0974
5.6083,-12.2526,0.0946
5.6125,-12.1705,0.0918
5.6167,-12.0847,0.0890
5.6208,-11.9952,0.0863
5.6250,-11.9024,0.0836
5.6292,-11.8063,0.0809
5.6333,-11.7072,0.0783
5.6375,-11.6054,0.0757
5.6417,-11.5011,0.0731
5.6458,-11.3946,0.0705
5.6500,-11.2862,0.0680
5.6542,-11.1762,0.0655
5.6583,-11.0648,0.0630
5.6625,-10.9520,0.0606
5.6667,-10.8375,0.0602
5.6708,-10.7284,0.0617
5.6750,-10.6322,0.0590
5.6792,-10.5355,0.0576
5.6833,-10.4400,0.0560
5.6875,-10.3456,0.0545
5.6917,-10.2522,0.0530
5.6958,-10.1598,0.0515
5.7000,-10.0684,0.0500
5.7042,-9.9781,0.0486
5.7083,-9.8886,0.0471
5.7125,-9.8002,0.0457
5.7167,-9.7127,0.0443
5.7208,-9.6260,0.0429
5.7250,-9.5403,0.0415
5.7292,-9.4555,0.0401
5.7333,-9.3715,0.0387
5.7375,-9.2883,0.0373
5.7417,-9.2059,0.0360
5.7458,-9.1243,0.0346
5.7500,-9.0435,0.0333
5.7542,-8.9634,0.0321
5.7583,-8.8842,0.0309
5.7625,-8.8063,0.0296
5.7667,-8.7292,0.0284
5.7708,-8.6530,0.0272
5.7750,-8.5778,0.0260
5.7792,-8.5034,0.0249
5.7833,-8.4300,0.0236
5.7875,-8.3573,0.0225
5.7917,-8.2854,0.0213
5.7958,-8.2142,0.0201
5.8000,-8.1437,0.0189
5.8042,-8.0739,0.0177
5.8083,-8.0046,0.0166
5.8125,-7.9360,0.0154
5.8167,-7.8679,0.0142
5.8208,-7.7995,0.0116
5.8250,-7.7258,0.0096
5.8292,-7.6480,0.0094
5.8333,-7.5730,0.0090
5.8375,-7.5016,0.0085
5.8417,-7.4338,0.0081
5.8458,-7.3693,0.0076
5.8500,-7.3079,0.0072
5.8542,-7.2494,0.0067
5.8583,-7.1936,0.0062
5.8625,-7.1401,0.0059
5.8667,-7.0895,0.0054
5.8708,-7.0409,0.0050
5.8750,-6.9943,0.0044
5.8792,-6.9488,0.0045
5.8833,-6.9069,0.0042
5.8875,-6.8674,0.0039
5.8917,-6.8299,0.0037
5.8958,-6.7944,0.0034
5.9000,-6.7607,0.0032
5.9042,-6.7286,0.0029
5.9083,-6.6980,0.0026
5.9125,-6.6689,0.0024
5.9167,-6.6410,0.0021
5.9208,-6.6143,0.0019
5.9250,-6.5887,0.0016
5.9292,-6.5641,0.0014
5.9333,-6.5405,0.0011
5.9375,-6.5177,0.0008
5.9417,-6.4957,0.0006
5.9458,-6.4744,0.0003
5.9500,-6.4538,0.0001
5.9542,-6.4338,-0.0002
5.9583,-6.4143,-0.0005
5.9625,-6.3953,-0.0007
5.9667,-6.3768,-0.0010
5.9708,-6.3587,-0.0013
5.9750,-6.3409,-0.0015
5.9792,-6.3235,-0.0018
5.9833,-6.3064,-0.0021
5.9875,-6.2895,-0.0024
5.9917,-6.2729,-0.0026
5.9958,-6.2564,-0.0029
6.0000,-6.2401,-0.0032
6.0042,-6.2240,-0.0035
6.0083,-6.2079,-0.0038
6.0125,-6.1920,-0.0041
6.0167,-6.1761,-0.0044
6.0208,-6.1595,-0.0021
6.0250,-6.1512,-0.0024
6.0292,-6.1447,-0.0020
6.0333,-6.1401,-0.0017
6.0375,-6.1371,-0.0013
6.0417,-6.1358,-0.0009
6.0458,-6.1360,-0.0006
6.0500,-6.1376,-0.0002
6.0542,-6.1406,0.0002
6.0583,-6.1449,0.0006
6.0625,-6.1503,0.0011
6.0667,-6.1569,0.0015
6.0708,-6.1646,0.0019
6.0750,-6.1732,0.0024
6.0792,-6.1835,0.0022
6.0833,-6.1935,0.0025
6.0875,-6.2040,0.0022
6.0917,-6.2132,0.0019
6.0958,-6.2209,0.0017
6.1000,-6.2270,0.0014
6.1042,-6.2316,0.0012
6.1083,-6.2348,0.0009
6.1125,-6.2367,0.0007
6.1167,-6.2374,0.0004
6.1208,-6.2370,0.0002
6.1250,-6.2355,-0.0001
6.1292,-6.2331,-0.0004
6.1333,-6.2298,-0.0006
6.1375,-6.2257,-0.0009
6.1417,-6.2208,-0.0012
6.1458,-6.2152,-0.0014
6.1500,-6.2088,-0.0017
6.1542,-6.2019,-0.0020
6.1583,-6.1944,-0.0023
6.1625,-6.1862,-0.0025
6.1667,-6.1769,-0.0015
6.1708,-6.1710,-0.0008
6.1750,-6.1685,-0.0006
6.1792,-6.1675,-0.0002
6.1833,-6.1681,0.0002
6.1875,-6.1701,0.0006
6.1917,-6.1734,0.0010
6.1958,-6.1783,0.0011
6.2000,-6.1841,0.0011
6.2042,-6.1900,0.0009
6.2083,-6.1952,0.0007
6.2125,-6.1992,0.0004
6.2167,-6.2018,0.0001
6.2208,-6.2031,-0.0001
6.2250,-6.2033,-0.0004
6.2292,-6.2023,-0.0007
6.2333,-6.2003,-0.0009
6.2375,-6.1973,-0.0012
6.2417,-6.1934,-0.0015
6.2458,-6.1887,-0.0018
6.2500,-6.1829,-0.0013
6.2542,-6.1780,-0.0004
6.2583,-6.1763,-0.0002
6.2625,-6.1762,0.0002
6.2667,-6.1776,0.0006
6.2708,-6.1806,0.0009
6.2750,-6.1852,0.0006
6.2792,-6.1892,0.0005
6.2833,-6.1928,0.0002
6.2875,-6.1953,-0.0000
6.2917,-6.1965,-0.0003
6.2958,-6.1966,-0.0006
6.3000,-6.1955,-0.0008
6.3042,-6.1934,-0.0011
6.3083,-6.1903,-0.0014
6.3125,-6.1861,-0.0012
6.3167,-6.1820,-0.0003
6.3208,-6.1807,-0.0000
6.3250,-6.1809,0.0004
6.3292,-6.1826,0.0008
6.3333,-6.1863,0.0003
6.3375,-6.1893,0.0003
6.3417,-6.1919,0.0000
6.3458,-6.1934,-0.0003
6.3500,-6.1938,-0.0005
6.3542,-6.1930,-0.0008
6.3583,-6.1911,-0.0011
6.3625,-6.1881,-0.0010
6.3667,-6.1847,-0.0001
6.3708,-6.1839,0.0002
6.3750,-6.1846,0.0006
6.3792,-6.1871,0.0003
6.3833,-6.1896,0.0002
6.3875,-6.1917,-0.0001
6.3917,-6.1928,-0.0004
6.3958,-6.1928,-0.0006
6.4000,-6.1917,-0.0009
6.4042,-6.1894,-0.0008
6.4083,-6.1867,-0.0000
6.4125,-6.1861,0.0003
6.4167,-6.1874,0.0003
6.4208,-6.1896,-0.0000
6.4250,-6.1910,-0.0002
6.4292,-6.1917,-0.0005
6.4333,-6.1913,-0.0008
6.4375,-6.1896,-0.0005
6.4417,-6.1881,-0.0000
6.4458,-6.1882,0.0002
6.4500,-6.1893,0.0000
6.4542,-6.1904,-0.0003
6.4583,-6.1908,-0.0004
6.4625,-6.1904,-0.0004
6.4667,-6.1898,-0.0003
6.4708,-6.1895,-0.0001
6.4750,-6.1896,-0.0001
6.4792,-6.1901,-0.0001
6.4833,-6.1906,-0.0002
6.4875,-6.1907,-0.0003
6.4917,-6.1905,-0.0003
6.4958,-6.1903,-0.0002
6.5000,-6.1904,-0.0001
6.5042,-6.1906,-0.0001
6.5083,-6.1909,-0.0002
6.5125,-6.1911,-0.0002
6.5167,-6.1911,-0.0002
6.5208,-6.1910,-0.0002
6.5250,-6.1910,-0.0002
6.5292,-6.1911,-0.0002
6.5333,-6.1913,-0.0002
6.5375,-6.1915,-0.0002
6.5417,-6.1915,-0.0002
6.5458,-6.1915,-0.0002
6.5500,-6.1915,-0.0002
6.5542,-6.1916,-0.0002
6.5583,-6.1917,-0.0002
6.5625,-6.1918,-0.0002
6.5667,-6.1919,-0.0002
6.5708,-6.1919,-0.0002
6.5750,-6.1920,-0.0002
6.5792,-6.1920,-0.0002
6.5833,-6.1921,-0.0002
6.5875,-6.1922,-0.0002
6.5917,-6.1923,-0.0002
6.5958,-6.1923,-0.0002
6.6000,-6.1924,-0.0002
6.6042,-6.1924,-0.0002
6.6083,-6.1925,-0.0002
6.6125,-6.1925,-0.0002
6.6167,-6.1926,-0.0002
6.6208,-6.1927,-0.0002
6.6250,-6.1927,-0.0002
6.6292,-6.1927,-0.0002
6.6333,-6.1928,-0.0002
6.6375,-6.1929,-0.0002
6.6417,-6.1929,-0.0002
6.6458,-6.1930,-0.0002
6.6500,-6.1930,-0.0002
6.6542,-6.1931,-0.0002
6.6583,-6.1931,-0.0002
6.6625,-6.1932,-0.0002
6.6667,-6.1932,-0.0002
6.6708,-6.1933,-0.0002
6.6750,-6.1933,-0.0002
6.6792,-6.1933,-0.0001
6.6833,-6.1934,-0.0001
6.6875,-6.1934,-0.0001
6.6917,-6.1935,-0.0001
6.6958,-6.1935,-0.0001
6.7000,-6.1936,-0.0001
6.7042,-6.1936,-0.0001
6.7083,-6.1936,-0.0001
6.7125,-6.1937,-0.0001
6.7167,-6.1937,-0.0001
6.7208,-6.1938,-0.0001
6.7250,-6.1938,-0.0001
6.7292,-6.1938,-0.0001
6.7333,-6.1939,-0.0001
6.7375,-6.1939,-0.0001
6.7417,-6.1939,-0.0001
6.7458,-6.1940,-0.0001
6.7500,-6.1940,-0.0001
6.7542,-6.1940,-0.0001
6.7583,-6.1941,-0.0001
6.7625,-6.1941,-0.0001
6.7667,-6.1941,-0.0001
6.7708,-6.1942,-0.0001
6.7750,-6.1942,-0.0001
6.7792,-6.1942,-0.0001
6.7833,-6.1943,-0.0001
6.7875,-6.1943,-0.0001
6.7917,-6.1943,-0.0001
6.7958,-6.1944,-0.0001
6.8000,-6.1944,-0.0001
6.8042,-6.1944,-0.0001
6.8083,-6.1944,-0.0001
6.8125,-6.1945,-0.0001
6.8167,-6.1945,-0.0001
6.8208,-6.1945,-0.0001
6.8250,-6.1945,-0.0001
6.8292,-6.1946,-0.0001
6.8333,-6.1946,-0.0001
6.8375,-6.1946,-0.0001
6.8417,-6.1946,-0.0001
6.8458,-6.1947,-0.0001
6.8500,-6.1947,-0.0001
6.8542,-6.1947,-0.0001
6.8583,-6.1947,-0.0001
6.8625,-6.1948,-0.0001
6.8667,-6.1948,-0.0001
6.8708,-6.1948,-0.0001
6.8750,-6.1948,-0.0001
6.8792,-6.1949,-0.0001
6.8833,-6.1949,-0.0001
6.8875,-6.1949,-0.0001
6.8917,-6.1949,-0.0001
6.8958,-6.1949,-0.0001
6.9000,-6.1950,-0.0001
6.9042,-6.1950,-0.0001
6.9083,-6.1950,-0.0001
6.9125,-6.1950,-0.0001
6.9167,-6.1950,-0.0001
6.9208,-6.1950,-0.0001
6.9250,-6.1951,-0.0001
6.9292,-6.1951,-0.0001
6.9333,-6.1951,-0.0001
6.9375,-6.1951,-0.0001
6.9417,-6.1951,-0.0001
6.9458,-6.1952,-0.0001
6.9500,-6.1952,-0.0001
6.9542,-6.1952,-0.0001
6.9583,-6.1952,-0.0001
6.9625,-6.1952,-0.0001
6.9667,-6.1952,-0.0001
6.9708,-6.1952,-0.0001
6.9750,-6.1953,-0.0001
6.9792,-6.1953,-0.0001
6.9833,-6.1953,-0.0001
6.9875,-6.1953,-0.0001
6.9917,-6.1953,-0.0001
6.9958,-6.1953,-0.0001
7.0000,-6.1953,-0.0001
7.0042,-6.1954,-0.0001
7.0083,-6.1954,-0.0001
7.0125,-6.1954,-0.0001
7.0167,-6.1954,-0.0001
7.0208,-6.1954,-0.0001
7.0250,-6.1954,-0.0001
7.0292,-6.1954,-0.0001
7.0333,-6.1954,-0.0001
7.0375,-6.1955,-0.0001
7.0417,-6.1955,-0.0001
7.0458,-6.1955,-0.0001
7.0500,-6.1955,-0.0001
7.0542,-6.1955,-0.0001
7.0583,-6.1955,-0.0001
7.0625,-6.1955,-0.0001
7.0667,-6.1955,-0.0001
7.0708,-6.1955,-0.0001
7.0750,-6.1956,-0.0001
7.0792,-6.1956,-0.0001
7.0833,-6.1956,-0.0001
7.0875,-6.1956,-0.0001
7.0917,-6.1956,-0.0001
7.0958,-6.1956,-0.0001
7.1000,-6.1956,-0.0001
7.1042,-6.1956,-0.0001
7.1083,-6.1956,-0.0001
7.1125,-6.1956,-0.0001
7.1167,-6.1956,-0.0001
7.1208,-6.1957,-0.0001
7.1250,-6.1957,-0.0001
7.1292,-6.1957,-0.0001
7.1333,-6.1957,-0.0001
7.1375,-6.1957,-0.0001
7.1417,-6.1957,-0.0001
7.1458,-6.1957,-0.0001
7.1500,-6.1957,-0.0001
7.1542,-6.1957,-0.0001
7.1583,-6.1957,-0.0001
7.1625,-6.1957,-0.0001
7.1667,-6.1957,-0.0001
7.1708,-6.1957,-0.0001
7.1750,-6.1957,-0.0001
7.1792,-6.1958,-0.0001
7.1833,-6.1958,-0.0001
7.1875,-6.1958,-0.0001
7.1917,-6.1958,-0.0001
7.1958,-6.1958,-0.0001
7.2000,-6.1958,-0.0001
7.2042,-6.1958,-0.0001
7.2083,-6.1958,-0.0001
7.2125,-6.1958,-0.0001
7.2167,-6.1958,-0.0001
7.2208,-6.1958,-0.0001
7.2250,-6.1958,-0.0001
7.2292,-6.1958,-0.0001
7.2333,-6.1958,-0.0001
7.2375,-6.1958,-0.0001
7.2417,-6.1958,-0.0001
7.2458,-6.1958,-0.0001
7.2500,-6.1958,-0.0001
7.2542,-6.1959,-0.0001
7.2583,-6.1959,-0.0001
7.2625,-6.1959,-0.0001
7.2667,-6.1959,-0.0001
7.2708,-6.1959,-0.0001
7.2750,-6.1959,-0.0001
7.2792,-6.1959,-0.0001
7.2833,-6.1959,-0.0001
7.2875,-6.1959,-0.0001
7.2917,-6.1959,-0.0001
7.2958,-6.1959,-0.0001
7.3000,-6.1959,-0.0001
7.3042,-6.1959,-0.0001
7.3083,-6.1959,-0.0001
7.3125,-6.1959,-0.0001
7.3167,-6.1959,-0.0001
7.3208,-6.1959,-0.0001
7.3250,-6.1959,-0.0001
7.3292,-6.1959,-0.0001
7.3333,-6.1959,-0.0001
7.3375,-6.1959,-0.0001
7.3417,-6.1959,-0.0001
7.3458,-6.1959,-0.0001
7.3500,-6.1959,-0.0001
7.3542,-6.1959,-0.0001
7.3583,-6.1959,-0.0001
7.3625,-6.1959,-0.0001
7.3667,-6.1960,-0.0001
7.3708,-6.1960,-0.0001
7.3750,-6.1960,-0.0001
7.3792,-6.1960,-0.0001
7.3833,-6.1960,-0.0001
7.3875,-6.1960,-0.0001
7.3917,-6.1960,-0.0001
7.3958,-6.1960,-0.0001
7.4000,-6.1960,-0.0001
7.4042,-6.1960,-0.0001
7.4083,-6.1960,-0.0001
7.4125,-6.1960,-0.0001
7.4167,-6.1960,-0.0001
7.4208,-6.1960,-0.0001
7.4250,-6.1960,-0.0001
7.4292,-6.1960,-0.0001
7.4333,-6.1960,-0.0001
7.4375,-6.1960,-0.0001
7.4417,-6.1960,-0.0001
7.4458,-6.1960,-0.0001
7.4500,-6.1960,-0.0001
7.4542,-6.1960,-0.0001
7.4583,-6.1960,-0.0001
7.4625,-6.1960,-0.0001
7.4667,-6.1960,-0.0001
7.4708,-6.1960,-0.0001
7.4750,-6.1960,-0.0001
7.4792,-6.1960,-0.0001
7.4833,-6.1959,0.0001
7.4875,-6.1959,0.0004
7.4917,-6.1958,0.0010
7.4958,-6.1955,0.0025
7.5000,-6.1948,0.0054
7.5042,-6.1957,0.0092
7.5083,-6.1999,0.0131
7.5125,-6.2076,0.0171
7.5167,-6.2185,0.0211
7.5208,-6.2320,0.0251
7.5250,-6.2477,0.0289
7.5292,-6.2649,0.0328
7.5333,-6.2833,0.0366
7.5375,-6.3023,0.0403
7.5417,-6.3215,0.0440
7.5458,-6.3405,0.0476
7.5500,-6.3590,0.0513
7.5542,-6.3766,0.0549
7.5583,-6.4133,0.0071
7.5625,-6.3927,0.0195
7.5667,-6.3786,-0.0240
7.5708,-6.2879,-0.0056
7.5750,-6.1819,0.0046
7.5792,-6.0850,0.0175
7.5833,-6.0205,-0.0235
7.5875,-6.0536,-0.0439
7.5917,-6.1247,-0.0919
7.5958,-6.1036,-0.0537
7.6000,-6.0861,-0.0422
7.6042,-6.1490,-0.0988
7.6083,-6.1170,-0.0597
7.6125,-6.1698,-0.1146
7.6167,-6.1406,-0.0761
7.6208,-6.1010,-0.0596
7.6250,-6.0513,-0.0468
7.6292,-5.9987,-0.0387
7.6333,-6.0292,-0.1006
7.6375,-5.9547,-0.0608
7.6417,-5.8908,-0.0543
7.6458,-5.8147,-0.0445
7.6500,-5.8244,-0.1080
7.6542,-5.7907,-0.1058
7.6583,-5.7409,-0.1136
7.6625,-5.6873,-0.1162
7.6667,-5.6325,-0.1190
7.6708,-5.5763,-0.1218
7.6750,-5.5191,-0.1247
7.6792,-5.4609,-0.1277
7.6833,-5.4019,-0.1307
7.6875,-5.2416,-0.1142
7.6917,-5.0833,-0.1099
7.6958,-4.9292,-0.1057
7.7000,-4.7787,-0.1018
7.7042,-4.6317,-0.0980
7.7083,-4.4883,-0.0943
7.7125,-4.3574,-0.0908
7.7167,-4.2476,-0.0922
7.7208,-4.1526,-0.0976
7.7250,-4.0516,-0.0991
7.7292,-3.9500,-0.1011
7.7333,-3.8469,-0.1031
7.7375,-3.7426,-0.1052
7.7417,-3.6276,-0.1005
7.7458,-3.5164,-0.0887
7.7500,-3.4176,-0.0851
7.7542,-3.3267,-0.0812
7.7583,-3.2503,-0.0822
7.7625,-3.1732,-0.0808
7.7667,-3.1007,-0.0798
7.7708,-3.0324,-0.0788
7.7750,-2.9685,-0.0780
7.7792,-2.9089,-0.0769
7.7833,-2.8544,-0.0760
7.7875,-2.8052,-0.0751
7.7917,-2.7615,-0.0743
7.7958,-2.7229,-0.0736
7.8000,-2.6895,-0.0729
7.8042,-2.6613,-0.0722
7.8083,-2.6380,-0.0716
7.8125,-2.6179,-0.0734
7.8167,-2.5931,-0.0713
7.8208,-2.5750,-0.0696
7.8250,-2.5658,-0.0681
7.8292,-2.5657,-0.0667
7.8333,-2.5745,-0.0653
7.8375,-2.5918,-0.0638
7.8417,-2.6170,-0.0625
7.8458,-2.6494,-0.0611
7.8500,-2.6884,-0.0597
7.8542,-2.7331,-0.0583
7.8583,-2.7829,-0.0568
7.8625,-2.8370,-0.0554
7.8667,-2.8945,-0.0540
7.8708,-2.9551,-0.0526
7.8750,-3.0180,-0.0512
7.8792,-3.0827,-0.0497
7.8833,-3.1488,-0.0483
7.8875,-3.2158,-0.0469
7.8917,-3.2836,-0.0455
7.8958,-3.3518,-0.0440
7.9000,-3.4203,-0.0426
7.9042,-3.4889,-0.0412
7.9083,-3.5575,-0.0399
7.9125,-3.6260,-0.0385
7.9167,-3.6943,-0.0371
7.9208,-3.7623,-0.0357
7.9250,-3.8301,-0.0344
7.9292,-3.8975,-0.0330
7.9333,-3.9646,-0.0317
7.9375,-4.0312,-0.0303
7.9417,-4.0975,-0.0290
7.9458,-4.1634,-0.0277
7.9500,-4.2295,-0.0275
7.9542,-4.2928,-0.0288
7.9583,-4.3472,-0.0277
7.9625,-4.3968,-0.0269
7.9667,-4.4433,-0.0263
7.9708,-4.4874,-0.0258
7.9750,-4.5293,-0.0252
7.9792,-4.5693,-0.0247
7.9833,-4.6074,-0.0242
7.9875,-4.6439,-0.0238
7.9917,-4.6789,-0.0233
7.9958,-4.7123,-0.0229
8.0000,-4.7445,-0.0225
8.0042,-4.7753,-0.0221
8.0083,-4.8050,-0.0217
8.0125,-4.8335,-0.0213
8.0167,-4.8609,-0.0210
8.0208,-4.8874,-0.0206
8.0250,-4.9129,-0.0203
8.0292,-4.9375,-0.0200
8.0333,-4.9613,-0.0197
8.0375,-4.9842,-0.0194
8.0417,-5.0064,-0.0191
8.0458,-5.0278,-0.0188
8.0500,-5.0484,-0.0185
8.0542,-5.0684,-0.0182
8.0583,-5.0878,-0.0180
8.0625,-5.1065,-0.0177
8.0667,-5.1246,-0.0175
8.0708,-5.1421,-0.0173
8.0750,-5.1590,-0.0170
8.0792,-5.1754,-0.0168
8.0833,-5.1912,-0.0166
8.0875,-5.2065,-0.0164
8.0917,-5.2213,-0.0163
8.0958,-5.2356,-0.0161
8.1000,-5.2495,-0.0159
8.1042,-5.2629,-0.0157
8.1083,-5.2758,-0.0156
8.1125,-5.2882,-0.0154
8.1167,-5.3002,-0.0153
8.1208,-5.3118,-0.0151
8.1250,-5.3229,-0.0150
8.1292,-5.3337,-0.0149
8.1333,-5.3440,-0.0148
8.1375,-5.3539,-0.0147
8.1417,-5.3634,-0.0146
8.1458,-5.3725,-0.0145
8.1500,-5.3812,-0.0144
8.1542,-5.3895,-0.0143
8.1583,-5.3975,-0.0143
8.1625,-5.4050,-0.0142
8.1667,-5.4122,-0.0141
8.1708,-5.4190,-0.0141
8.1750,-5.4255,-0.0140
8.1792,-5.4315,-0.0140
8.1833,-5.4372,-0.0140
8.1875,-5.4426,-0.0140
8.1917,-5.4475,-0.0139
8.1958,-5.4521,-0.0139
8.2000,-5.4564,-0.0139
8.2042,-5.4603,-0.0139
8.2083,-5.4638,-0.0140
8.2125,-5.4669,-0.0140
8.2167,-5.4697,-0.0140
8.2208,-5.4721,-0.0141
8.2250,-5.4742,-0.0141
8.2292,-5.4759,-0.0142
8.2333,-5.4772,-0.0142
8.2375,-5.4782,-0.0143
8.2417,-5.4788,-0.0144
8.2458,-5.4790,-0.0144
8.2500,-5.4788,-0.0145
8.2542,-5.4783,-0.0146
8.2583,-5.4773,-0.0147
8.2625,-5.4760,-0.0149
8.2667,-5.4743,-0.0150
8.2708,-5.4722,-0.0151
8.2750,-5.4697,-0.0153
8.2792,-5.4668,-0.0154
8.2833,-5.4628,-0.0149
8.2875,-5.4602,-0.0147
8.2917,-5.4585,-0.0140
8.2958,-5.4592,-0.0134
8.3000,-5.4623,-0.0129
8.3042,-5.4678,-0.0123
8.3083,-5.4755,-0.0117
8.3125,-5.4851,-0.0112
8.3167,-5.4965,-0.0106
8.3208,-5.5096,-0.0100
8.3250,-5.5241,-0.0094
8.3292,-5.5400,-0.0088
8.3333,-5.5572,-0.0083
8.3375,-5.5754,-0.0077
8.3417,-5.5946,-0.0071
8.3458,-5.6155,-0.0076
8.3500,-5.6344,-0.0083
8.3542,-5.6495,-0.0082
8.3583,-5.6626,-0.0083
8.3625,-5.6739,-0.0084
8.3667,-5.6837,-0.0086
8.3708,-5.6921,-0.0087
8.3750,-5.6990,-0.0089
8.3792,-5.7047,-0.0091
8.3833,-5.7091,-0.0092
8.3875,-5.7123,-0.0094
8.3917,-5.7145,-0.0096
8.3958,-5.7156,-0.0098
8.4000,-5.7155,-0.0098
8.4042,-5.7146,-0.0095
8.4083,-5.7141,-0.0090
8.4125,-5.7154,-0.0085
8.4167,-5.7187,-0.0080
8.4208,-5.7238,-0.0075
8.4250,-5.7306,-0.0070
8.4292,-5.7390,-0.0065
8.4333,-5.7489,-0.0060
8.4375,-5.7600,-0.0055
8.4417,-5.7724,-0.0050
8.4458,-5.7866,-0.0055
8.4500,-5.7994,-0.0062
8.4542,-5.8090,-0.0063
8.4583,-5.8167,-0.0065
8.4625,-5.8229,-0.0067
8.4667,-5.8276,-0.0069
8.4708,-5.8309,-0.0071
8.4750,-5.8330,-0.0074
8.4792,-5.8336,-0.0073
8.4833,-5.8334,-0.0069
8.4875,-5.8339,-0.0064
8.4917,-5.8360,-0.0060
8.4958,-5.8398,-0.0056
8.5000,-5.8452,-0.0051
8.5042,-5.8521,-0.0047
8.5083,-5.8603,-0.0042
8.5125,-5.8699,-0.0038
8.5167,-5.8811,-0.0046
8.5208,-5.8902,-0.0049
8.5250,-5.8971,-0.0051
8.5292,-5.9023,-0.0053
8.5333,-5.9060,-0.0056
8.5375,-5.9083,-0.0059
8.5417,-5.9093,-0.0061
8.5458,-5.9086,-0.0058
8.5500,-5.9081,-0.0054
8.5542,-5.9087,-0.0050
8.5583,-5.9109,-0.0045
8.5625,-5.9146,-0.0041
8.5667,-5.9197,-0.0037
8.5708,-5.9263,-0.0033
8.5750,-5.9343,-0.0030
8.5792,-5.9436,-0.0037
8.5833,-5.9510,-0.0041
8.5875,-5.9563,-0.0043
8.5917,-5.9599,-0.0046
8.5958,-5.9621,-0.0049
8.6000,-5.9628,-0.0052
8.6042,-5.9618,-0.0047
8.6083,-5.9612,-0.0044
8.6125,-5.9617,-0.0040
8.6167,-5.9638,-0.0036
8.6208,-5.9673,-0.0032
8.6250,-5.9722,-0.0028
8.6292,-5.9783,-0.0024
8.6333,-5.9863,-0.0030
8.6375,-5.9930,-0.0035
8.6417,-5.9972,-0.0038
8.6458,-5.9997,-0.0040
8.6500,-6.0008,-0.0044
8.6542,-6.0001,-0.0040
8.6583,-5.9995,-0.0036
8.6625,-6.0001,-0.0032
8.6667,-6.0022,-0.0028
8.6708,-6.0056,-0.0024
8.6750,-6.0103,-0.0021
8.6792,-6.0168,-0.0024
8.6833,-6.0229,-0.0030
8.6875,-6.0266,-0.0033
8.6917,-6.0286,-0.0036
8.6958,-6.0290,-0.0037
8.7000,-6.0280,-0.0033
8.7042,-6.0276,-0.0029
8.7083,-6.0286,-0.0026
8.7125,-6.0310,-0.0022
8.7167,-6.0347,-0.0018
8.7208,-6.0399,-0.0016
8.7250,-6.0464,-0.0023
8.7292,-6.0510,-0.0027
8.7333,-6.0536,-0.0030
8.7375,-6.0546,-0.0033
8.7417,-6.0539,-0.0033
8.7458,-6.0524,-0.0029
8.7500,-6.0517,-0.0025
8.7542,-6.0523,-0.0022
8.7583,-6.0544,-0.0018
8.7625,-6.0578,-0.0015
8.7667,-6.0624,-0.0011
8.7708,-6.0688,-0.0018
8.7750,-6.0737,-0.0023
8.7792,-6.0763,-0.0026
8.7833,-6.0773,-0.0029
8.7875,-6.0768,-0.0032
8.7917,-6.0744,-0.0028
8.7958,-6.0725,-0.0024
8.8000,-6.0720,-0.0021
8.8042,-6.0728,-0.0017
8.8083,-6.0751,-0.0014
8.8125,-6.0786,-0.0010
8.8167,-6.0833,-0.0007
8.8208,-6.0897,-0.0013
8.8250,-6.0947,-0.0019
8.8292,-6.0973,-0.0022
8.8333,-6.0981,-0.0025
8.8375,-6.0974,-0.0028
8.8417,-6.0948,-0.0024
8.8458,-6.0927,-0.0021
8.8500,-6.0920,-0.0017
8.8542,-6.0926,-0.0014
8.8583,-6.0946,-0.0011
8.8625,-6.0978,-0.0007
8.8667,-6.1022,-0.0004
8.8708,-6.1083,-0.0010
8.8750,-6.1129,-0.0016
8.8792,-6.1151,-0.0019
8.8833,-6.1157,-0.0023
8.8875,-6.1147,-0.0026
8.8917,-6.1118,-0.0022
8.8958,-6.1093,-0.0018
8.9000,-6.1082,-0.0015
8.9042,-6.1085,-0.0012
8.9083,-6.1101,-0.0008
8.9125,-6.1129,-0.0005
8.9167,-6.1169,-0.0002
8.9208,-6.1226,-0.0007
8.9250,-6.1271,-0.0014
8.9292,-6.1292,-0.0017
8.9333,-6.1295,-0.0020
8.9375,-6.1282,-0.0021
8.9417,-6.1256,-0.0018
8.9458,-6.1236,-0.0014
8.9500,-6.1229,-0.0011
8.9542,-6.1236,-0.0008
8.9583,-6.1256,-0.0005
8.9625,-6.1287,-0.0001
8.9667,-6.1335,-0.0004
8.9708,-6.1380,-0.0011
8.9750,-6.1401,-0.0015
8.9792,-6.1405,-0.0018
8.9833,-6.1392,-0.0019
8.9875,-6.1366,-0.0016
8.9917,-6.1345,-0.0012
8.9958,-6.1338,-0.0009
9.0000,-6.1345,-0.0006
9.0042,-6.1363,-0.0003
9.0083,-6.1394,0.0001
9.0125,-6.1442,-0.0005
9.0167,-6.1479,-0.0011
9.0208,-6.1493,-0.0015
9.0250,-6.1490,-0.0018
9.0292,-6.1467,-0.0015
9.0333,-6.1446,-0.0011
9.0375,-6.1436,-0.0008
9.0417,-6.1440,-0.0005
9.0458,-6.1456,-0.0002
9.0500,-6.1485,0.0001
9.0542,-6.1530,-0.0006
9.0583,-6.1559,-0.0011
9.0625,-6.1566,-0.0014
9.0667,-6.1558,-0.0018
9.0708,-6.1528,-0.0014
9.0750,-6.1503,-0.0011
9.0792,-6.1491,-0.0007
9.0833,-6.1492,-0.0004
9.0875,-6.1506,-0.0001
9.0917,-6.1532,0.0002
9.0958,-6.1573,0.0000
9.1000,-6.1615,-0.0007
9.1042,-6.1635,-0.0011
9.1083,-6.1637,-0.0014
9.1125,-6.1622,-0.0016
9.1167,-6.1592,-0.0013
9.1208,-6.1568,-0.0009
9.1250,-6.1556,-0.0006
9.1292,-6.1558,-0.0003
9.1333,-6.1572,0.0000
9.1375,-6.1598,0.0003
9.1417,-6.1639,0.0001
9.1458,-6.1679,-0.0006
9.1500,-6.1697,-0.0010
9.1542,-6.1696,-0.0014
9.1583,-6.1677,-0.0014
9.1625,-6.1648,-0.0011
9.1667,-6.1625,-0.0008
9.1708,-6.1615,-0.0004
9.1750,-6.1618,-0.0001
9.1792,-6.1634,0.0002
9.1833,-6.1661,0.0005
9.1875,-6.1705,-0.0001
9.1917,-6.1738,-0.0007
9.1958,-6.1746,-0.0011
9.2000,-6.1737,-0.0014
9.2042,-6.1708,-0.0011
9.2083,-6.1684,-0.0007
9.2125,-6.1671,-0.0004
9.2167,-6.1672,-0.0001
9.2208,-6.1685,0.0002
9.2250,-6.1709,0.0005
9.2292,-6.1752,-0.0001
9.2333,-6.1779,-0.0007
9.2375,-6.1784,-0.0011
9.2417,-6.1773,-0.0014
9.2458,-6.1741,-0.0010
9.2500,-6.1715,-0.0007
9.2542,-6.1701,-0.0004
9.2583,-6.1700,-0.0001
9.2625,-6.1712,0.0002
9.2667,-6.1735,0.0005
9.2708,-6.1774,0.0002
9.2750,-6.1809,-0.0005
9.2792,-6.1821,-0.0009
9.2833,-6.1815,-0.0012
9.2875,-6.1791,-0.0010
9.2917,-6.1763,-0.0007
9.2958,-6.1745,-0.0004
9.3000,-6.1740,-0.0001
9.3042,-6.1747,0.0002
9.3083,-6.1767,0.0005
9.3125,-6.1801,0.0003
9.3167,-6.1835,-0.0004
9.3208,-6.1848,-0.0008
9.3250,-6.1843,-0.0012
9.3292,-6.1818,-0.0010
9.3333,-6.1791,-0.0006
9.3375,-6.1774,-0.0003
9.3417,-6.1770,-0.0000
9.3458,-6.1778,0.0003
9.3500,-6.1798,0.0006
9.3542,-6.1835,0.0001
9.3583,-6.1864,-0.0005
9.3625,-6.1871,-0.0009
9.3667,-6.1860,-0.0012
9.3708,-6.1829,-0.0008
9.3750,-6.1804,-0.0005
9.3792,-6.1791,-0.0002
9.3833,-6.1791,0.0001
9.3875,-6.1803,0.0004
9.3917,-6.1826,0.0007
9.3958,-6.1867,0.0001
9.4000,-6.1894,-0.0006
9.4042,-6.1898,-0.0009
9.4083,-6.1884,-0.0012
9.4125,-6.1851,-0.0008
9.4167,-6.1823,-0.0005
9.4208,-6.1808,-0.0002
9.4250,-6.1805,0.0001
9.4292,-6.1815,0.0004
9.4333,-6.1836,0.0007
9.4375,-6.1873,0.0004
9.4417,-6.1908,-0.0003
9.4458,-6.1922,-0.0007
9.4500,-6.1917,-0.0010
9.4542,-6.1894,-0.0010
9.4583,-6.1863,-0.0007
9.4625,-6.1839,-0.0004
9.4667,-6.1828,-0.0001
9.4708,-6.1830,0.0002
9.4750,-6.1845,0.0005
9.4792,-6.1871,0.0008
9.4833,-6.1913,0.0001
9.4875,-6.1939,-0.0004
9.4917,-6.1944,-0.0008
9.4958,-6.1931,-0.0012
9.5000,-6.1900,-0.0009
9.5042,-6.1869,-0.0006
9.5083,-6.1848,-0.0003
9.5125,-6.1840,0.0000
9.5167,-6.1845,0.0003
9.5208,-6.1862,0.0006
9.5250,-6.1892,0.0007
9.5292,-6.1932,0.0000
9.5333,-6.1954,-0.0005
9.5375,-6.1954,-0.0008
9.5417,-6.1939,-0.0012
9.5458,-6.1902,-0.0009
9.5500,-6.1869,-0.0005
9.5542,-6.1849,-0.0002
9.5583,-6.1839,0.0007
9.5625,-6.1878,-0.0029
9.5667,-6.1452,-0.0115
9.5708,-6.0699,0.0222
9.5750,-6.0367,-0.0062
9.5792,-5.9832,0.0230
9.5833,-5.9272,-0.0192
9.5875,-5.8215,0.0236
9.5917,-5.7843,-0.0219
9.5958,-5.6930,0.0279
9.6000,-5.6704,-0.0207
9.6042,-5.6066,0.0157
9.6083,-5.5992,-0.0248
9.6125,-5.5388,0.0206
9.6167,-5.5394,-0.0263
9.6208,-5.4927,0.0054
9.6250,-5.5042,-0.0281
9.6292,-5.4598,0.0097
9.6333,-5.4650,-0.0311
9.6375,-5.4161,0.0073
9.6417,-5.3687,-0.0410
9.6458,-5.2288,0.0419
9.6500,-5.1872,-0.0199
9.6542,-5.1049,0.0123
9.6583,-5.0987,-0.0166
9.6625,-5.0799,0.0036
9.6667,-5.0978,-0.0204
9.6708,-5.0891,-0.0014
9.6750,-5.1146,-0.0227
9.6792,-5.0709,-0.0152
9.6833,-5.0383,-0.0161
9.6875,-5.0167,-0.0185
9.6917,-5.0007,-0.0191
9.6958,-4.9920,-0.0216
9.7000,-4.9852,-0.0218
9.7042,-4.9400,-0.0336
9.7083,-4.8704,-0.0106
9.7125,-4.8488,-0.0410
9.7167,-4.7487,-0.0124
9.7208,-4.6941,-0.0242
9.7250,-4.6392,-0.0054
9.7292,-4.6280,-0.0211
9.7333,-4.6114,-0.0091
9.7375,-4.6262,-0.0249
9.7417,-4.5855,-0.0207
9.7458,-4.5521,-0.0159
9.7500,-4.5391,-0.0195
9.7542,-4.5337,-0.0186
9.7583,-4.5406,-0.0226
9.7625,-4.5477,-0.0209
9.7667,-4.5219,-0.0330
9.7708,-4.4674,-0.0072
9.7750,-4.4548,-0.0313
9.7792,-4.4210,-0.0069
9.7833,-4.4288,-0.0342
9.7875,-4.3710,-0.0209
9.7917,-4.2984,-0.0337
9.7958,-4.2136,-0.0061
9.8000,-4.1799,-0.0287
9.8042,-4.0995,-0.0156
9.8083,-4.0614,-0.0278
9.8125,-3.9863,-0.0250
9.8167,-3.9341,-0.0225
9.8208,-3.9104,-0.0278
9.8250,-3.8525,-0.0318
9.8292,-3.8012,-0.0204
9.8333,-3.7397,-0.0384
9.8375,-3.6724,-0.0149
9.8417,-3.6573,-0.0372
9.8458,-3.5829,-0.0263
9.8500,-3.5432,-0.0331
9.8542,-3.5142,-0.0302
9.8583,-3.4642,-0.0408
9.8625,-3.4079,-0.0276
9.8667,-3.3955,-0.0427
9.8708,-3.3327,-0.0372
9.8750,-3.2929,-0.0387
9.8792,-3.2285,-0.0450
9.8833,-3.1821,-0.0312
9.8875,-3.1756,-0.0455
9.8917,-3.1160,-0.0404
9.8958,-3.0841,-0.0372
9.9000,-3.0755,-0.0429
9.9042,-3.0292,-0.0446
9.9083,-2.9740,-0.0397
9.9125,-2.9626,-0.0396
9.9167,-2.9837,-0.0390
9.9208,-3.0372,-0.0383
9.9250,-3.1238,-0.0376
9.9292,-3.2271,-0.0368
9.9333,-3.3342,-0.0353
9.9375,-3.4410,-0.0334
9.9417,-3.5465,-0.0314
9.9458,-3.6517,-0.0294
9.9500,-3.7564,-0.0283
9.9542,-3.8582,-0.0272
9.9583,-3.9568,-0.0260
9.9625,-4.0520,-0.0248
9.9667,-4.1439,-0.0235
9.9708,-4.2327,-0.0223
9.9750,-4.3183,-0.0211
9.9792,-4.4011,-0.0199
9.9833,-4.4811,-0.0187
9.9875,-4.5586,-0.0175
9.9917,-4.6337,-0.0165
9.9958,-4.7063,-0.0156
10.0000,-4.7763,-0.0146
10.0042,-4.8438,-0.0136
10.0083,-4.9088,-0.0126
10.0125,-4.9717,-0.0116
10.0167,-5.0326,-0.0107
10.0208,-5.0917,-0.0097
10.0250,-5.1491,-0.0088
10.0292,-5.2050,-0.0078
10.0333,-5.2595,-0.0069
10.0375,-5.3137,-0.0081
10.0417,-5.3616,-0.0076
10.0458,-5.4053,-0.0073
10.0500,-5.4454,-0.0071
10.0542,-5.4825,-0.0069
10.0583,-5.5168,-0.0067
10.0625,-5.5486,-0.0065
10.0667,-5.5780,-0.0064
10.0708,-5.6054,-0.0062
10.0750,-5.6308,-0.0061
10.0792,-5.6543,-0.0060
10.0833,-5.6763,-0.0058
10.0875,-5.6967,-0.0057
10.0917,-5.7157,-0.0057
10.0958,-5.7333,-0.0056
10.1000,-5.7497,-0.0055
10.1042,-5.7650,-0.0054
10.1083,-5.7792,-0.0054
10.1125,-5.7925,-0.0053
10.1167,-5.8047,-0.0053
10.1208,-5.8162,-0.0052
10.1250,-5.8268,-0.0052
10.1292,-5.8366,-0.0051
10.1333,-5.8458,-0.0051
10.1375,-5.8542,-0.0051
10.1417,-5.8615,-0.0056
10.1458,-5.8671,-0.0058
10.1500,-5.8713,-0.0055
10.1542,-5.8757,-0.0054
10.1583,-5.8800,-0.0054
10.1625,-5.8647,-0.0207
10.1667,-5.8592,-0.0243
10.1708,-5.8555,-0.0204
10.1750,-5.8612,-0.0171
10.1792,-5.8774,-0.0154
10.1833,-5.8986,-0.0088
10.1875,-5.9446,-0.0121
10.1917,-5.9844,-0.0039
10.1958,-6.0535,-0.0139
10.2000,-6.0945,0.0024
10.2042,-6.1760,-0.0137
10.2083,-6.2215,0.0060
10.2125,-6.3105,-0.0109
10.2167,-6.3702,0.0050
10.2208,-6.4432,-0.0191
10.2250,-6.5331,-0.0009
10.2292,-6.7120,-0.0359
10.2333,-6.7904,0.0063
10.2375,-6.9387,-0.0335
10.2417,-7.0549,0.0000
10.2458,-7.3173,-0.0737
10.2500,-7.4578,-0.0067
10.2542,-7.8054,-0.1072
10.2583,-7.9910,-0.0147
10.2625,-8.3468,-0.0950
10.2667,-8.6825,-0.0918
10.2708,-8.9461,-0.0323
10.2750,-9.2185,-0.0197
10.2792,-9.6112,-0.1492
10.2833,-10.0214,-0.1692
10.2875,-10.4808,-0.2093
10.2917,-10.8584,-0.1842
10.2958,-11.0110,-0.0243
10.3000,-10.9997,0.0929
10.3042,-11.0259,0.0424
10.3083,-11.1937,-0.0472
10.3125,-11.3000,-0.0178
10.3167,-11.4322,-0.0346
10.3208,-11.4964,0.0233
10.3250,-11.6796,-0.0460
10.3292,-11.7673,0.0106
10.3333,-11.9200,-0.0405
10.3375,-12.0819,-0.0689
10.3417,-12.1165,0.0149
10.3458,-12.0737,0.0751
10.3500,-12.2429,-0.0448
10.3542,-12.4191,-0.1079
10.3583,-12.4745,-0.0301
10.3625,-12.5015,-0.0285
10.3667,-12.4277,0.0385
10.3708,-12.4578,-0.0390
10.3750,-12.3405,0.0311
10.3792,-12.2743,0.0291
10.3833,-12.2041,0.0326
10.3875,-12.1314,0.0360
10.3917,-12.0582,0.0394
10.3958,-11.9867,0.0429
10.4000,-11.9184,0.0464
10.4042,-11.8542,0.0500
10.4083,-11.7944,0.0539
10.4125,-11.7386,0.0579
10.4167,-11.6862,0.0622
10.4208,-11.6364,0.0668
10.4250,-11.5889,0.0715
10.4292,-11.5432,0.0765
10.4333,-11.4991,0.0816
10.4375,-11.4567,0.0868
10.4417,-11.4160,0.0922
10.4458,-11.3772,0.0977
10.4500,-11.3406,0.1033
10.4542,-11.3078,0.1161
10.4583,-11.2908,0.1203
10.4625,-11.2759,0.1253
10.4667,-11.2637,0.1305
10.4708,-11.2547,0.1358
10.4750,-11.2495,0.1411
10.4792,-11.2484,0.1466
10.4833,-11.2519,0.1522
10.4875,-11.2603,0.1578
10.4917,-11.2738,0.1634
10.4958,-11.2925,0.1692
10.5000,-11.3170,0.1752
10.5042,-11.3473,0.1813
10.5083,-11.3835,0.1874
10.5125,-11.4257,0.1937
10.5167,-11.4739,0.2000
10.5208,-11.5316,0.2190
10.5250,-11.6081,0.2244
10.5292,-11.6897,0.2304
10.5333,-11.7775,0.2365
10.5375,-11.8712,0.2427
10.5417,-11.9707,0.2491
10.5458,-12.0761,0.2556
10.5500,-12.1871,0.2622
10.5542,-12.3035,0.2689
10.5583,-12.4254,0.2757
10.5625,-12.5523,0.2821
10.5667,-12.6894,0.3053
10.5708,-12.8408,0.3117
10.5750,-12.9982,0.3184
10.5792,-13.1614,0.3253
10.5833,-13.3305,0.3324
10.5875,-13.5053,0.3396
10.5917,-13.6859,0.3469
10.5958,-13.8721,0.3544
10.6000,-14.0640,0.3620
10.6042,-14.2668,0.3864
10.6083,-14.4815,0.3938
10.6125,-14.7031,0.4008
10.6167,-14.9317,0.4084
10.6208,-15.1672,0.4164
10.6250,-15.4098,0.4246
10.6292,-15.6594,0.4329
10.6333,-15.9158,0.4413
10.6375,-16.1792,0.4499
10.6417,-16.4495,0.4586
10.6458,-16.7332,0.4876
10.6500,-17.0302,0.4961
10.6542,-17.3354,0.5040
10.6583,-17.6489,0.5130
10.6625,-17.9708,0.5222
10.6667,-18.3011,0.5315
10.6708,-18.6396,0.5410
10.6750,-18.9863,0.5507
10.6792,-19.3411,0.5605
10.6833,-19.7038,0.5705
10.6875,-20.0743,0.5806
10.6917,-20.4600,0.6140
10.6958,-20.8628,0.6237
10.7000,-21.2747,0.6339
10.7042,-21.6954,0.6434
10.7083,-22.1247,0.6534
10.7125,-22.5626,0.6642
10.7167,-23.0090,0.6752
10.7208,-23.4638,0.6863
10.7250,-23.9267,0.6976
10.7292,-24.3977,0.7091
10.7333,-24.8767,0.7208
10.7375,-25.3635,0.7326
10.7417,-25.8583,0.7446
10.7458,-26.3686,0.7813
10.7500,-26.9010,0.7917
10.7542,-27.4401,0.8035
10.7583,-27.9880,0.8153
10.7625,-28.5444,0.8270
10.7667,-29.1090,0.8373
10.7708,-29.6824,0.8495
10.7750,-30.2652,0.8617
10.7792,-30.8576,0.8739
10.7833,-31.4600,0.8859
10.7875,-32.0724,0.8979
10.7917,-32.6952,0.9097
10.7958,-33.3285,0.9213
10.8000,-33.9725,0.9328
10.8042,-34.6272,0.9439
10.8083,-35.2925,0.9549
10.8125,-35.9684,0.9655
10.8167,-36.6547,0.9758
10.8208,-37.3511,0.9858
10.8250,-38.0572,0.9954
10.8292,-38.7727,1.0046
10.8333,-39.4970,1.0134
10.8375,-40.2417,1.0314
